Description	Bog1 (clean blank)																																																				
EEM type	"Dilution- & Scatter-corrected, Calibrated Data (ppb QSE)"																																																				
Scan date	10/1/2010 14:32																																																				
Excitation	240-500nm by 5nm																																																				
Emission	290-600nm by 2nm																																																				
Calibration	Michael_Fluoromax4_April08 (07-Apr-2008)																																																				
Slit settings	"5nm Excitation, 5nm Emission"																																																				
Dilution	60																																																				
Row 1	Excitation(nm)																																																				
Col 1	Emission(nm)																																																				
Data	Fluorescence(ppb QSE)																																																				
																																																					
	240	245	250	255	260	265	270	275	280	285	290	295	300	305	310	315	320	325	330	335	340	345	350	355	360	365	370	375	380	385	390	395	400	405	410	415	420	425	430	435	440	445	450	455	460	465	470	475	480	485	490	495	500
290	1138.1634	1194.3032	1127.7389	930.8502	762.227	613.7341	495.245	401.0951	270.0188	137.8949	0	0	0	0	0	0	0	0	0	0	0	0	0	0	0	0	0	0	0	0	0	0	0	0	0	0	0	0	0	0	0	0	0	0	0	0	0	0	0	0	0	0	0
292	1321.6402	1407.676	1296.0374	1036.4411	860.1785	704.5449	573.8066	431.799	286.8511	150.8902	30.8028	0	0	0	0	0	0	0	0	0	0	0	0	0	0	0	0	0	0	0	0	0	0	0	0	0	0	0	0	0	0	0	0	0	0	0	0	0	0	0	0	0	0
294	1416.6588	1568.8914	1375.6527	1139.9965	956.2299	777.4301	628.0679	461.776	370.1571	157.9912	60.9723	0	0	0	0	0	0	0	0	0	0	0	0	0	0	0	0	0	0	0	0	0	0	0	0	0	0	0	0	0	0	0	0	0	0	0	0	0	0	0	0	0	0
296	1630.5097	1716.4065	1532.7369	1239.7666	1022.6943	831.6049	622.7989	490.3546	427.5541	164.6777	90.3837	1.2485	0	0	0	0	0	0	0	0	0	0	0	0	0	0	0	0	0	0	0	0	0	0	0	0	0	0	0	0	0	0	0	0	0	0	0	0	0	0	0	0	0
298	1817.2517	1995.8669	1717.3358	1417.0373	1077.2247	883.0711	616.6104	517.39	422.4474	170.9145	62.1297	2.4624	0	0	0	0	0	0	0	0	0	0	0	0	0	0	0	0	0	0	0	0	0	0	0	0	0	0	0	0	0	0	0	0	0	0	0	0	0	0	0	0	0
300	2112.4221	2210.7861	1938.8997	1531.4554	1129.938	873.1094	626.3255	543.5003	417.3167	222.458	34.6709	3.6417	0	0	0	0	0	0	0	0	0	0	0	0	0	0	0	0	0	0	0	0	0	0	0	0	0	0	0	0	0	0	0	0	0	0	0	0	0	0	0	0	0
302	2304.4116	2415.2519	2154.5648	1735.9229	1200.3958	877.2711	661.9387	560.8479	418.8707	253.327	8.1333	3.6475	0	0	0	0	0	0	0	0	0	0	0	0	0	0	0	0	0	0	0	0	0	0	0	0	0	0	0	0	0	0	0	0	0	0	0	0	0	0	0	0	0
304	2436.8872	2501.2652	2271.8021	1706.6493	1202.3738	881.4422	697.7204	578.2617	420.4275	258.1092	42.6114	2.4354	0	0	0	0	0	0	0	0	0	0	0	0	0	0	0	0	0	0	0	0	0	0	0	0	0	0	0	0	0	0	0	0	0	0	0	0	0	0	0	0	0
306	2381.0759	2463.7666	2142.7832	1758.3192	1202.1759	885.1717	715.5574	587.6091	421.7745	262.7745	62.1656	1.219	0	0	0	0	0	0	0	0	0	0	0	0	0	0	0	0	0	0	0	0	0	0	0	0	0	0	0	0	0	0	0	0	0	0	0	0	0	0	0	0	0
308	2238.5477	2375.5623	2051.908	1612.6058	1178.8753	888.4551	733.0743	588.8411	440.1854	267.3163	67.0474	-0.0001	0	0	0	0	0	0	0	0	0	0	0	0	0	0	0	0	0	0	0	0	0	0	0	0	0	0	0	0	0	0	0	0	0	0	0	0	0	0	0	0	0
310	2181.0571	2319.0875	1990.5234	1617.1026	1171.4224	815.299	750.6253	590.0743	458.6331	271.8641	88.8296	-0.0001	-0.0001	0	0	0	0	0	0	0	0	0	0	0	0	0	0	0	0	0	0	0	0	0	0	0	0	0	0	0	0	0	0	0	0	0	0	0	0	0	0	0	0
312	2217.7369	2365.2647	1974.7163	1602.7813	1144.9723	835.748	763.506	604.8027	467.3129	274.7439	109.9911	-0.0001	-0.0001	0	0	0	0	0	0	0	0	0	0	0	0	0	0	0	0	0	0	0	0	0	0	0	0	0	0	0	0	0	0	0	0	0	0	0	0	0	0	0	0
314	2081.4572	2235.0236	1922.9892	1550.1655	1071.4957	779.0216	776.2082	619.3444	469.009	276.9189	130.9356	-0.0001	-0.0001	0	0	0	0	0	0	0	0	0	0	0	0	0	0	0	0	0	0	0	0	0	0	0	0	0	0	0	0	0	0	0	0	0	0	0	0	0	0	0	0
316	1977.778	2140.2351	1875.6784	1489.7326	1044.6332	741.289	759.4301	631.5719	469.0842	278.1242	151.1591	22.3569	-0.0001	-0.0001	0	0	0	0	0	0	0	0	0	0	0	0	0	0	0	0	0	0	0	0	0	0	0	0	0	0	0	0	0	0	0	0	0	0	0	0	0	0	0
318	1849.1981	1972.0166	1729.7229	1373.052	961.119	720.3663	704.2135	641.3045	466.8622	286.6884	170.4462	44.1904	-0.0001	-0.0001	0	0	0	0	0	0	0	0	0	0	0	0	0	0	0	0	0	0	0	0	0	0	0	0	0	0	0	0	0	0	0	0	0	0	0	0	0	0	0
320	1713.4621	1828.252	1593.8385	1260.5127	892.6486	660.5297	678.8695	650.6085	464.5529	303.2284	163.7157	65.4989	-0.0001	-0.0001	-0.0001	0	0	0	0	0	0	0	0	0	0	0	0	0	0	0	0	0	0	0	0	0	0	0	0	0	0	0	0	0	0	0	0	0	0	0	0	0	0
322	1560.5005	1596.9361	1396.5473	1188.0405	827.3036	604.2791	623.4677	611.5927	459.9943	317.7897	156.3725	85.8809	17.5248	-0.0001	-0.0001	0	0	0	0	0	0	0	0	0	0	0	0	0	0	0	0	0	0	0	0	0	0	0	0	0	0	0	0	0	0	0	0	0	0	0	0	0	0
324	1383.2087	1473.0882	1316.2826	1082.3922	753.9833	567.9866	564.5504	568.2742	455.3168	307.9369	161.5502	105.534	34.4543	-0.0001	-0.0001	0	0	0	0	0	0	0	0	0	0	0	0	0	0	0	0	0	0	0	0	0	0	0	0	0	0	0	0	0	0	0	0	0	0	0	0	0	0
326	1374.7089	1390.5635	1162.5657	1006.8192	729.1462	510.2897	543.6258	530.0079	450.3197	298.1074	178.5225	111.7155	50.7647	-0.0001	-0.0001	-0.0001	0	0	0	0	0	0	0	0	0	0	0	0	0	0	0	0	0	0	0	0	0	0	0	0	0	0	0	0	0	0	0	0	0	0	0	0	0
328	1204.1218	1222.5598	1123.1851	900.2601	650.9752	489.2515	511.0595	501.1126	424.0494	288.3069	194.6851	117.5471	66.4322	16.1953	-0.0001	-0.0001	0	0	0	0	0	0	0	0	0	0	0	0	0	0	0	0	0	0	0	0	0	0	0	0	0	0	0	0	0	0	0	0	0	0	0	0	0
330	1071.1874	1160.9768	1026.051	830.443	611.9921	457.8267	463.7886	471.7412	412.1143	278.6697	198.3973	127.1448	81.4704	31.7786	-0.0001	-0.0001	0	0	0	0	0	0	0	0	0	0	0	0	0	0	0	0	0	0	0	0	0	0	0	0	0	0	0	0	0	0	0	0	0	0	0	0	0
332	984.3156	997.7295	914.379	746.4685	564.5634	456.4376	428.6248	448.7795	393.5847	266.2992	199.6484	138.7685	93.4607	46.248	-0.0001	-0.0001	-0.0001	0	0	0	0	0	0	0	0	0	0	0	0	0	0	0	0	0	0	0	0	0	0	0	0	0	0	0	0	0	0	0	0	0	0	0	0
334	921.0013	924.7469	855.6256	662.3191	525.1364	405.6098	397.2054	414.2927	362.8031	273.3689	200.4495	149.4377	104.5598	59.7683	20.7846	-0.0001	-0.0001	0	0	0	0	0	0	0	0	0	0	0	0	0	0	0	0	0	0	0	0	0	0	0	0	0	0	0	0	0	0	0	0	0	0	0	0
336	826.7555	794.2554	796.3693	628.1598	456.5094	381.8306	379.4902	394.8251	339.1131	280.6022	201.0058	158.039	115.3189	72.4114	40.2962	-0.0001	-0.0001	0	0	0	0	0	0	0	0	0	0	0	0	0	0	0	0	0	0	0	0	0	0	0	0	0	0	0	0	0	0	0	0	0	0	0	0
338	707.1946	735.8726	653.559	552.5375	462.5255	368.3056	362.1966	355.1344	338.7189	278.9162	201.3378	165.9683	125.7383	96.1491	58.5929	10.9653	-0.0001	-0.0001	0	0	0	0	0	0	0	0	0	0	0	0	0	0	0	0	0	0	0	0	0	0	0	0	0	0	0	0	0	0	0	0	0	0	0
340	670.114	660.0126	625.2194	514.1581	421.356	353.9301	346.3159	360.1669	327.8917	269.1326	213.392	173.0772	135.2651	118.2451	75.6513	38.4738	9.0845	0	0	0	0	0	0	0	0	0	0	0	0	0	0	0	0	0	0	0	0	0	0	0	0	0	0	0	0	0	0	0	0	0	0	0	0
342	632.2101	580.3349	549.8998	493.4658	387.1252	341.6672	335.6975	334	328.0394	266.4262	229.408	180.3467	155.8782	136.3892	91.9682	64.5201	27.2911	2.4203	0	0	0	0	0	0	0	0	0	0	0	0	0	0	0	0	0	0	0	0	0	0	0	0	0	0	0	0	0	0	0	0	0	0	0
344	620.9741	571.0692	522.4417	460.0118	389.5557	327.7624	344.055	335.5776	317.3988	274.5479	229.8659	186.9262	175.1137	150.3416	121.6648	89.0428	46.8581	23.8781	0	0	0	0	0	0	0	0	0	0	0	0	0	0	0	0	0	0	0	0	0	0	0	0	0	0	0	0	0	0	0	0	0	0	0
346	570.853	543.4257	525.2518	454.5851	379.8983	323.0535	341.4814	327.3305	318.7304	283.5339	254.4984	215.6556	193.4767	163.6803	149.8873	112.332	73.4363	39.9837	13.9973	0	0	0.1623	0	0	0	0	0	0	0	0	0	0	0	0	0	0	0	0	0	0	0	0	0	0	0	0	0	0	0	0	0	0	0
348	597.0699	528.1196	506.3673	445.5684	387.9195	326.3538	337.5444	343.2479	319.34	298.4599	268.655	234.4232	211.1469	190.2063	174.0002	134.5863	98.7707	68.4688	33.5801	0	0.3755	0.3165	0	0	0	0	0	0	0	0	0	0	0	0	0	0	0	0	0	0	0	0	0	0	0	0	0	0	0	0	0	0	0
350	579.155	541.6281	468.9047	421.8265	380.1657	338.6352	359.9272	336.478	335.8161	303.1958	286.1716	254.2312	227.6734	215.1891	193.8995	157.644	122.7371	84.9044	55.8279	24.9222	0.7318	0.4626	0	0	0	0	0	0	0	0	0	0	0	0	0	0	0	0	0	0	0	0	0	0	0	0	0	0	0	0	0	0	0
352	588.8818	541.1091	470.7638	424.8138	390.264	353.5539	344.2686	354.0357	342.572	318.3856	308.7964	286.1652	259.5243	238.6728	212.5747	179.3633	145.3605	111.4252	79.0182	43.9553	1.069	3.1223	3.0321	0	0	0	0	0	0	0	0	0	0	0	0	0	0	0	0	0	0	0	0	0	0	0	0	0	0	0	0	0	0
354	566.3612	518.8595	494.2311	437.9761	382.6497	356.5744	364.7806	368.764	358.9363	337.2311	324.7216	301.3589	286.7414	260.6152	231.9475	199.7142	176.8411	145.6432	98.8782	61.3928	26.7018	8.0933	5.9018	0	0	0	0	0	0	0	0	0	0	0	0	0	0	0	0	0	0	0	0	0	0	0	0	0	0	0	0	0	0
356	589.6452	578.1664	514.1993	439.8171	412.9175	376.7864	371.8105	378.6818	370.704	351.2986	340.3106	334.0876	314.6082	281.9832	260.7716	239.431	217.2768	178.47	126.0365	80.4781	43.4635	12.8306	8.6388	0.8275	0	0	0	0	0	0	0	0	0	0	0	0	0	0	0	0	0	0	0	0	0	0	0	0	0	0	0	0	0
358	576.1225	572.0517	509.552	456.5543	434.1028	394.8207	394.2403	392.5206	389.6933	372.3915	361.8532	365.6886	351.1813	324.7913	298.6951	277.9775	256.7752	210.274	154.2619	110.3332	70.2729	17.3845	7.5693	1.6196	0	0	0	0	0	0	0	0	0	0	0	0	0	0	0	0	0	0	0	0	0	0	0	0	0	0	0	0	0
360	660.1418	616.5736	542.0541	484.6293	453.3313	419.7797	409.4988	410.0708	405.2986	393.6205	390.3678	393.6993	375.4635	354.1372	334.7733	314.9818	294.4057	240.5606	190.5717	135.5345	86.4108	41.1991	6.5387	2.3763	0	0	0	0	0	0	0	0	0	0	0	0	0	0	0	0	0	0	0	0	0	0	0	0	0	0	0	0	0
362	685.6602	603.0306	560.1828	537.1505	473.4236	453.8266	434.7911	427.6595	430.1965	422.2745	410.3359	416.3343	413.1835	396.6163	371.619	352.7521	324.2564	275.9692	226.7549	163.659	107.5586	59.3586	5.5858	6.6325	4.9496	0	0	0	0	0	0	0	0	0	0	0	0	0	0	0	0	0	0	0	0	0	0	0	0	0	0	0	0
364	736.7984	656.7551	623.9504	561.1623	508.5388	470.5175	477.8127	454.6948	454.1785	453.5328	450.1571	460.4775	454.5022	429.3432	415.205	389.2414	353.0621	319.5419	261.763	195.2419	134.5653	84.1068	35.6551	14.2134	9.7446	0	0	0	0	0	0	0	0	0	0	0	0	0	0	0	0	0	0	0	0	0	0	0	0	0	0	0	0
366	824.4998	742.0128	646.8463	584.6038	535.7965	503.1599	484.1253	482.2506	483.0256	481.4464	487.5284	486.9093	482.6017	480.7322	454.7351	424.7969	390.3498	361.9654	295.8363	227.6298	160.3157	102.2854	60.711	21.5691	14.3968	2.5576	0	0	0	0	0	0	0	0	0	0	0	0	0	0	0	0	0	0	0	0	0	0	0	0	0	0	0
368	843.2234	776.4188	691.7184	641.9509	576.6009	545.0566	523.8143	510.5819	511.0662	513.0928	514.8896	526.0471	528.3526	512.382	491.5715	459.5172	431.2925	394.4843	328.2815	259.1919	194.92	122.8381	76.9607	28.7181	15.362	5.0411	0	0	0	0	0	0	0	0	0	0	0	0	0	0	0	0	0	0	0	0	0	0	0	0	0	0	0
370	894.6635	814.3383	726.7062	669.1525	605.952	573.6489	552.7207	554.0556	548.4017	535.1465	549.5329	563.9779	575.6094	564.8423	542.6925	509.308	470.927	425.9298	358.138	289.7648	221.2688	153.5892	96.5557	50.0313	16.2925	7.4502	0	0	0	0	0	0	0	0	0	0	0	0	0	0	0	0	0	0	0	0	0	0	0	0	0	0	0
372	967.0479	873.7268	800.0893	732.1227	655.5973	618.9632	594.585	583.2927	577.098	586.3294	592.9525	611.315	619.9157	611.799	593.6694	552.6703	511.8874	457.1174	388.9908	331.4604	260.4089	179.763	120.0696	73.3068	17.2764	12.6742	6.1901	0	0	0	0	0	0	0	0	0	0	0	0	0	0	0	0	0	0	0	0	0	0	0	0	0	0
374	1043.4569	943.7473	832.2919	785.5631	709.5291	670.3465	640.2654	615.1546	622.2484	627.4167	638.5449	651.0342	672.9047	662.4819	647.9719	605.8616	552.0024	497.4157	440.1389	382.7201	298.7841	212.0006	145.5199	92.6787	44.8027	20.6043	12.2575	0	0	0	0	0	0	0	0	0	0	0	0	0	0	0	0	0	0	0	0	0	0	0	0	0	0
376	1153.0753	986.3318	910.8679	826.6541	760.9306	697.1609	674.3272	658.5409	653.4679	662.2934	675.0661	697.2134	718.7149	705.8542	686.6081	651.5622	599.75	546.8564	489.8544	423.3412	336.0973	244.4658	172.7931	112.3947	65.603	28.3489	18.1861	3.8696	0	0	0	0	0	0	0	0	0	0	0	0	0	0	0	0	0	0	0	0	0	0	0	0	0
378	1200.0301	1081.7361	984.1297	880.1105	823.5382	760.1808	733.5876	708.7399	704.961	702.7776	720.6689	742.4271	762.4517	773.3574	750.2553	706.2284	652.0977	594.6517	537.9855	462.6252	372.2375	283.9043	201.5766	139.4718	88.4993	35.8872	20.8674	7.647	0	0	0	0	0	0	0	0	0	0	0	0	0	0	0	0	0	0	0	0	0	0	0	0	0
380	1272.3709	1178.2799	1016.865	942.3625	888.0225	810.5128	786.3581	752.1694	744.774	750.0212	769.8733	803.2599	826.5161	814.1226	805.8286	764.9763	709.6073	641.2244	575.7421	499.1194	407.4576	322.3804	233.094	163.4733	109.5035	61.6387	23.4785	11.3321	0	0	0	0	0	0	0	0	0	0	0	0	0	0	0	0	0	0	0	0	0	0	0	0	0
382	1374.5632	1244.8036	1091.504	1012.6818	917.7823	874.5218	809.1144	786.3742	778.2205	787.8688	819.7129	852.2545	867.4163	870.8671	857.6086	820.4598	759.1503	689.7409	615.2952	535.3307	449.4099	361.5407	270.0629	192.0321	134.1227	82.6347	26.138	16.5984	6.2591	0	0	0	0	0	0	0	0	0	0	0	0	0	0	0	0	0	0	0	0	0	0	0	0
384	1394.9072	1262.9893	1187.7921	1054.0198	992.09	906.3828	871.6202	838.8709	825.9605	832.5638	869.5362	900.5436	922.9767	930.3225	915.8262	867.8001	808.5623	738.7787	654.2243	570.969	490.7297	400.1131	305.2236	224.5437	156.2112	100.2459	45.7259	23.3751	12.4216	0	0	0	0	0	0	0	0	0	0	0	0	0	0	0	0	0	0	0	0	0	0	0	0
386	1489.1837	1357.3633	1202.4362	1092.5919	1033.0289	943.2093	917.3532	865.3499	861.3462	867.6012	907.4362	946.8761	975.2538	978.22	957.4762	922.4324	862.7442	787.8339	695.1456	613.9828	532.1263	439.7414	341.1225	257.0638	183.4557	122.8201	70.627	30.1563	18.5561	4.053	0	0	0	0	0	0	0	0	0	0	0	0	0	0	0	0	0	0	0	0	0	0	0
388	1546.3512	1409.3731	1299.4642	1175.4665	1091.0045	1018.1679	940.1573	915.0901	904.7141	905.5439	947.2561	980.6097	1026.156	1025.4103	1008.7444	967.3477	910.5532	835.7932	738.5583	659.1764	574.1021	477.9578	378.1781	288.9123	210.3627	146.4139	88.4088	37.0185	21.7421	8.1023	0	0	0	0	0	0	0	0	0	0	0	0	0	0	0	0	0	0	0	0	0	0	0
390	1662.3589	1485.3542	1369.4472	1258.9056	1135.1908	1065.1177	995.403	971.1463	945.149	956.4343	993.972	1025.1985	1088.3289	1078.8065	1072.15	1029.6245	973.1182	896.2941	804.7753	704.4143	616.1126	516.1989	415.2555	321.373	249.0227	173.44	110.9333	59.3802	24.925	12.148	0	0	0	0	0	0	0	0	0	0	0	0	0	0	0	0	0	0	0	0	0	0	0
392	1699.6573	1583.7087	1405.6244	1298.246	1191.4638	1100.21	1043.6056	999.0006	1004.3725	985.443	1026.4905	1078.4404	1124.2799	1138.7809	1123.805	1088.0631	1022.2096	955.2058	853.196	745.1553	651.1919	551.12	456.9989	362.0779	276.4924	198.8516	128.1199	77.54	27.9375	17.7487	6.6705	0	0	0	0	0	0	0	0	0	0	0	0	0	0	0	0	0	0	0	0	0	0
394	1797.841	1643.844	1476.3213	1335.8432	1252.8124	1135.9581	1088.386	1055.3826	1007.9542	1024.9687	1074.6506	1117.8741	1172.7134	1192.3709	1181.2476	1142.5098	1088.269	1007.3215	905.7441	785.3778	693.5451	600.7323	504.0149	402.2967	307.1926	226.2402	154.5784	95.1629	47.8634	24.9214	13.2558	0	0	0	0	0	0	0	0	0	0	0	0	0	0	0	0	0	0	0	0	0	0
396	1864.9927	1703.3326	1512.0911	1395.6168	1291.6863	1223.6537	1156.3764	1073.5659	1059.9735	1076.9559	1105.8411	1168.7056	1220.0763	1244.807	1247.3359	1204.8539	1154.3862	1062.2157	961.9045	841.0094	744.2324	650.7761	548.2306	442.7174	343.0524	259.133	175.9645	112.7605	65.7713	32.0502	19.7864	3.6003	0	0	0	0	0	0	0	0	0	0	0	0	0	0	0	0	0	0	0	0	0
398	1926.1558	1763.5569	1590.1812	1495.1854	1373.4541	1267.8829	1160.3553	1130.0115	1116.8962	1112.8765	1167.981	1224.0791	1281.1358	1308.5136	1303.2442	1271.244	1208.5437	1130.3017	1017.5555	911.0892	795.7438	698.3012	592.9917	483.5386	382.6713	295.3997	208.2475	133.1723	85.7401	39.1685	21.5183	7.1759	0	0	0	0	0	0	0	0	0	0	0	0	0	0	0	0	0	0	0	0	0
400	2097.1556	1829.9186	1664.0266	1536.1343	1418.1029	1311.909	1240.4836	1170.5838	1154.6944	1157.0873	1203.7756	1271.5239	1326.6163	1362.1353	1359.9761	1325.3552	1271.2598	1193.1389	1084.3532	967.5834	846.9935	743.9789	634.3907	524.226	422.072	326.2096	236.9812	155.0958	103.885	56.6053	23.2376	10.7267	0	0	0	0	0	0	0	0	0	0	0	0	0	0	0	0	0	0	0	0	0
402	2120.6165	1923.9234	1714.7455	1625.4139	1497.8279	1382.1233	1284.9911	1208.4386	1190.4637	1198.7815	1253.1142	1319.346	1382.407	1405.256	1416.6126	1386.272	1337.4646	1251.877	1134.2516	1032.4348	895.3103	788.0375	674.3868	563.8942	460.4556	361.6476	263.1478	182.5439	119.033	73.8137	24.9017	15.0788	5.2106	0	0	0	0	0	0	0	0	0	0	0	0	0	0	0	0	0	0	0	0
404	2264.4107	2009.7568	1832.9971	1659.5953	1560.5718	1459.7842	1328.3501	1248.7472	1258.4201	1249.2365	1280.6647	1358.6702	1426.0179	1453.2996	1476.6808	1441.4063	1390.608	1303.7713	1195.3162	1086.0086	956.0251	831.6776	714.1833	603.1853	498.4763	394.0637	297.7873	208.5286	138.669	90.3146	42.1478	20.2314	10.3674	0	0	0	0	0	0	0	0	0	0	0	0	0	0	0	0	0	0	0	0
406	2231.6605	2113.9377	1908.4242	1725.4208	1624.2353	1475.9032	1380.577	1302.1896	1299.4264	1266.3149	1321.5428	1401.536	1463.4739	1512.1007	1529.81	1501.8927	1440.5022	1370.0576	1258.2199	1144.6989	1021.5764	876.5607	755.1135	642.1571	535.1964	426.9658	324.7681	235.1271	157.5646	107.2033	57.8907	25.3769	15.4994	2.5608	0	0	0	0	0	0	0	0	0	0	0	0	0	0	0	0	0	0	0
408	2388.7965	2171.8233	1984.4702	1777.2548	1677.0394	1536.2482	1444.5054	1358.448	1330.2088	1319.832	1359.8792	1436.4732	1519.2264	1565.8591	1577.699	1561.112	1512.5142	1437.5368	1326.3883	1208.4676	1073.2929	927.2558	797.3331	682.2042	568.8957	460.5481	355.3996	260.988	180.5682	124.6279	79.6421	30.5445	16.2565	5.1137	0	0	0	0	0	0	0	0	0	0	0	0	0	0	0	0	0	0	0
410	2402.225	2254.3267	2043.3008	1869.1507	1735.0918	1600.0935	1497.1447	1406.3423	1351.0097	1366.3904	1396.5406	1478.6846	1551.5228	1610.2247	1634.6571	1625.5703	1582.2917	1501.7223	1382.9494	1261.2234	1135.7443	988.3447	839.4954	718.2265	602.5363	498.9609	389.7848	292.2313	211.8232	140.3304	92.2289	49.1807	17.0112	7.6587	0	0	0	0	0	0	0	0	0	0	0	0	0	0	0	0	0	0	0
412	2410.9283	2256.6468	2057.4091	1948.8329	1792.1923	1658.5386	1523.9331	1432.3822	1403.9493	1393.3324	1448.3182	1510.1566	1587.7214	1652.7957	1684.9026	1686.906	1624.8839	1548.3206	1450.1658	1328.379	1188.23	1046.7622	881.6682	757.2808	646.023	542.2444	424.1415	323.9013	234.338	161.9524	111.378	67.4018	17.7647	11.9169	5.0204	0	0	0	0	0	0	0	0	0	0	0	0	0	0	0	0	0	0
414	2628.2548	2340.2299	2119.6729	1977.715	1878.2428	1699.5478	1584.9706	1497.3532	1436.3574	1431.4907	1460.8713	1558.2696	1633.7182	1687.2554	1735.5128	1723.9355	1676.9805	1605.9864	1503.6154	1376.3842	1249.725	1091.5084	939.9244	801.3	689.4595	576.4893	458.4443	348.8341	253.4	180.9481	126.5368	80.8827	38.7588	17.8811	10.0266	0	0	0	0	0	0	0	0	0	0	0	0	0	0	0	0	0	0
416	2631.2758	2401.2058	2184.9274	2042.2544	1910.8119	1764.0427	1639.3524	1524.9045	1477.459	1473.4297	1519.7027	1581.3724	1674.2931	1731.27	1774.1208	1778.7499	1742.2128	1675.6738	1562.3341	1440.9454	1299.339	1155.9345	996.644	847.2217	734.5366	612.0835	493.8235	376.6581	277.546	205.4482	143.1353	92.0663	56.5042	23.8826	15.0527	3.0322	0	0	0	0	0	0	0	0	0	0	0	0	0	0	0	0	0
418	2663.9395	2414.3766	2237.2236	2114.4217	1948.969	1796.55	1670.3395	1576.0692	1510.6948	1498.8854	1533.5247	1611.5946	1680.5822	1768.3739	1817.124	1827.6336	1796.1472	1738.1113	1626.825	1501.1063	1357.7838	1203.6655	1046.9366	895.3665	772.432	649.2729	531.4523	410.0841	308.306	228.249	157.7332	111.2012	68.859	29.9622	17.1137	6.083	0	0	0	0	0	0	0	0	0	0	0	0	0	0	0	0	0
420	2734.5826	2542.5561	2317.2631	2172.5821	2000.7675	1853.3214	1723.2396	1620.1151	1567.6536	1543.3816	1577.6624	1659.7877	1741.3319	1803.943	1865.8943	1880.5319	1847.9054	1783.5562	1686.4627	1564.3272	1414.35	1256.5943	1100.6956	943.8911	811.553	688.6115	567.7576	443.7539	336.7612	252.6706	179.8593	123.1193	84.8053	45.8952	19.1869	9.1523	0	0	0	0	0	0	0	0	0	0	0	0	0	0	0	0	0
422	2781.6789	2608.401	2416.9561	2245.4729	2071.9789	1920.4132	1775.4256	1649.695	1570.7932	1568.7582	1594.9271	1677.1802	1766.9863	1836.1868	1885.8014	1926.1186	1896.7905	1859.0882	1740.7765	1628.7136	1475.7358	1307.9094	1149.5008	1000.3078	852.1243	728.4265	599.3776	477.7831	358.1342	271.9728	199.173	139.0069	98.8368	60.7436	21.2774	13.4645	5.0162	0	0	0	0	0	0	0	0	0	0	0	0	0	0	0	0
424	2846.7007	2564.3595	2396.0183	2268.141	2139.9671	1959.3454	1808.7996	1684.4064	1613.2783	1608.4575	1626.54	1706.498	1786.1158	1874.0429	1918.2485	1964.2888	1943.1372	1890.6948	1795.7844	1669.674	1522.2802	1364.6413	1192.4248	1038.2746	893.0156	763.4096	631.2348	512.0743	389.7068	298.3865	221.9523	154.6507	113.387	74.0514	37.0923	19.0304	10.0658	0	0	0	0	0	0	0	0	0	0	0	0	0	0	0	0
