Description	SOS (clean blank)																																																				
EEM type	"Dilution- & Scatter-corrected, Calibrated Data (ppb QSE)"																																																				
Scan date	10/1/2010 14:39																																																				
Excitation	240-500nm by 5nm																																																				
Emission	290-600nm by 2nm																																																				
Calibration	Michael_Fluoromax4_April08 (07-Apr-2008)																																																				
Slit settings	"5nm Excitation, 5nm Emission"																																																				
Dilution	30																																																				
Row 1	Excitation(nm)																																																				
Col 1	Emission(nm)																																																				
Data	Fluorescence(ppb QSE)																																																				
																																																					
	240	245	250	255	260	265	270	275	280	285	290	295	300	305	310	315	320	325	330	335	340	345	350	355	360	365	370	375	380	385	390	395	400	405	410	415	420	425	430	435	440	445	450	455	460	465	470	475	480	485	490	495	500
290	0	0	0	0	0	0	0	0	0	0	0	0	0	0	0	0	0	0	0	0	0	0	0	0	0	0	0	0	0	0	0	0	0	0	0	0	0	0	0	0	0	0	0	0	0	0	0	0	0	0	0	0	0
292	0	0	0	0	0	0	0	1.1166	0	0	0	0	0	0	0	0	0	0	0	0	0	0	0	0	0	0	0	0	0	0	0	0	0	0	0	0	0	0	0	0	0	0	0	0	0	0	0	0	0	0	0	0	0
294	0	0	0	0	0	0	0	2.2088	0	0	0	0	0	0	0	0	0	0	0	0	0	0	0	0	0	0	0	0	0	0	0	0	0	0	0	0	0	0	0	0	0	0	0	0	0	0	0	0	0	0	0	0	0
296	0	0	0	0	0	0	3.3576	3.2723	0	0	0	0	0	0	0	0	0	0	0	0	0	0	0	0	0	0	0	0	0	0	0	0	0	0	0	0	0	0	0	0	0	0	0	0	0	0	0	0	0	0	0	0	0
298	0	0	0	0	0	0	6.6228	4.3027	2.2977	0	0	0	0	0	0	0	0	0	0	0	0	0	0	0	0	0	0	0	0	0	0	0	0	0	0	0	0	0	0	0	0	0	0	0	0	0	0	0	0	0	0	0	0
300	0	0	0	0	0	3.4564	8.7068	5.3028	4.5311	0	0	0	0	0	0	0	0	0	0	0	0	0	0	0	0	0	0	0	0	0	0	0	0	0	0	0	0	0	0	0	0	0	0	0	0	0	0	0	0	0	0	0	0
302	0	0	0	0	0	6.9249	9.8112	9.9107	6.8082	0	0	0	0	0	0	0	0	0	0	0	0	0	0	0	0	0	0	0	0	0	0	0	0	0	0	0	0	0	0	0	0	0	0	0	0	0	0	0	0	0	0	0	0
304	0	0	0	0	0	10.4055	10.9193	14.5352	9.0929	2.7341	0	0	0	0	0	0	0	0	0	0	0	0	0	0	0	0	0	0	0	0	0	0	0	0	0	0	0	0	0	0	0	0	0	0	0	0	0	0	0	0	0	0	0
306	0	0	0	0	0	13.8913	15.6655	17.9834	11.3797	5.4748	0	0	0	0	0	0	0	0	0	0	0	0	0	0	0	0	0	0	0	0	0	0	0	0	0	0	0	0	0	0	0	0	0	0	0	0	0	0	0	0	0	0	0
308	0	0	0	0	0	17.3771	20.4138	20.2453	14.8578	8.2181	0	0	0	0	0	0	0	0	0	0	0	0	0	0	0	0	0	0	0	0	0	0	0	0	0	0	0	0	0	0	0	0	0	0	0	0	0	0	0	0	0	0	0
310	0	0	0	0	0	19.8413	25.1698	22.5103	18.341	10.9652	3.3973	0	0	0	0	0	0	0	0	0	0	0	0	0	0	0	0	0	0	0	0	0	0	0	0	0	0	0	0	0	0	0	0	0	0	0	0	0	0	0	0	0	0
312	0	0	0	0	0	23.0028	29.753	25.8022	21.302	13.6337	6.7587	0	0	0	0	0	0	0	0	0	0	0	0	0	0	0	0	0	0	0	0	0	0	0	0	0	0	0	0	0	0	0	0	0	0	0	0	0	0	0	0	0	0
314	0	0	0	0	0	26.8117	34.2864	29.0577	23.8364	17.792	10.0842	0	0	0	0	0	0	0	0	0	0	0	0	0	0	0	0	0	0	0	0	0	0	0	0	0	0	0	0	0	0	0	0	0	0	0	0	0	0	0	0	0	0
316	0	0	0	0	2.5537	23.8443	37.9834	32.1698	26.2551	21.8328	13.3295	3.1976	0	0	0	0	0	0	0	0	0	0	0	0	0	0	0	0	0	0	0	0	0	0	0	0	0	0	0	0	0	0	0	0	0	0	0	0	0	0	0	0	0
318	0	0	0	0	10.1181	26.914	40.8516	35.105	29.9852	25.2179	16.4612	6.3182	0	0	0	0	0	0	0	0	0	0	0	0	0	0	0	0	0	0	0	0	0	0	0	0	0	0	0	0	0	0	0	0	0	0	0	0	0	0	0	0	0
320	0	0	0	0	12.6467	40.358	44.4607	37.9588	33.6166	28.0237	18.7052	9.3617	0	0	0	0	0	0	0	0	0	0	0	0	0	0	0	0	0	0	0	0	0	0	0	0	0	0	0	0	0	0	0	0	0	0	0	0	0	0	0	0	0
322	0	0	0	13.9778	15.4468	33.0722	45.5266	45.84	36.9769	30.6098	20.7917	12.2709	3.2524	0	0	0	0	0	0	0	0	0	0	0	0	0	0	0	0	0	0	0	0	0	0	0	0	0	0	0	0	0	0	0	0	0	0	0	0	0	0	0	0
324	0	0	0	18.0934	22.3403	36.7131	45.3935	48.037	40.2016	32.343	23.0551	15.0743	6.3927	0	0	0	0	0	0	0	0	0	0	0	0	0	0	0	0	0	0	0	0	0	0	0	0	0	0	0	0	0	0	0	0	0	0	0	0	0	0	0	0
326	21.1781	0	0	11.9783	24.609	42.7237	50.1617	51.1501	43.2714	33.9813	25.4704	18.0615	9.4169	0	0	0	0	0	0	0	0	0	0	0	0	0	0	0	0	0	0	0	0	0	0	0	0	0	0	0	0	0	0	0	0	0	0	0	0	0	0	0	0
328	13.385	0	9.1293	10.2279	33.1348	40.0222	51.1667	49.8636	46.9903	35.5218	27.7692	20.9198	12.3205	2.9279	0	0	0	0	0	0	0	0	0	0	0	0	0	0	0	0	0	0	0	0	0	0	0	0	0	0	0	0	0	0	0	0	0	0	0	0	0	0	0
330	1.5637	1.8339	0	13.3533	34.1034	40.654	53.1891	56.606	50.6967	36.9786	30.2354	23.5603	15.1063	5.744	0	0	0	0	0	0	0	0	0	0	0	0	0	0	0	0	0	0	0	0	0	0	0	0	0	0	0	0	0	0	0	0	0	0	0	0	0	0	0
332	30.4529	16.8656	17.5997	20.1025	30.7003	45.6681	47.9366	56.5209	55.2893	37.9406	32.2352	25.71	17.1058	8.3576	0	0	0	0	0	0	0	0	0	0	0	0	0	0	0	0	0	0	0	0	0	0	0	0	0	0	0	0	0	0	0	0	0	0	0	0	0	0	0
334	32.3458	22.7537	21.2619	28.317	37.0996	48.9515	46.5319	51.5552	55.6259	47.2408	34.0547	27.6826	18.9532	10.7988	3.1132	0	0	0	0	0	0	0	0	0	0	0	0	0	0	0	0	0	0	0	0	0	0	0	0	0	0	0	0	0	0	0	0	0	0	0	0	0	0
336	33.9282	22.1209	30.0658	34.6331	35.2024	51.2974	47.2639	55.2457	52.4907	48.2125	35.7301	29.0701	20.8192	13.0808	6.0339	0	0	0	0	0	0	0	0	0	0	0	0	0	0	0	0	0	0	0	0	0	0	0	0	0	0	0	0	0	0	0	0	0	0	0	0	0	0
338	31.5922	28.1801	26.5283	32.3431	41.916	49.7816	50.7926	50.0211	56.0685	51.8884	37.2696	30.3455	22.6969	16.3414	8.7711	0	0	0	0	0	0	0	0	0	0	0	0	0	0	0	0	0	0	0	0	0	0	0	0	0	0	0	0	0	0	0	0	0	0	0	0	0	0
340	45.2632	28.5063	31.2385	45.7915	41.658	50.7663	51.1802	54.0246	55.8236	49.3218	41.3451	31.4816	24.4133	19.3681	11.3217	3.6006	0	0	0	0	0	0	0	0	0	0	0	0	0	0	0	0	0	0	0	0	0	0	0	0	0	0	0	0	0	0	0	0	0	0	0	0	0
342	71.2543	27.688	37.6762	46.5117	49.6403	55.9761	56.6142	55.5064	57.6495	49.6556	44.0971	32.6557	27.1684	21.9269	13.7601	7.0021	0	0	0	0	0	0	0	0	0	0	0	0	0	0	0	0	0	0	0	0	0	0	0	0	0	0	0	0	0	0	0	0	0	0	0	0	0
344	62.202	49.9198	49.0374	47.9956	52.0666	53.3653	62.8623	56.8347	57.6876	56.6589	45.2543	33.7125	29.7277	23.9645	18.1823	10.2042	0	0	0	0	0	0	0	0	0	0	0	0	0	0	0	0	0	0	0	0	0	0	0	0	0	0	0	0	0	0	0	0	0	0	0	0	0
346	70.8086	44.7323	58.9194	51.1812	56.4455	52.4278	60.9564	59.3655	60.3926	57.7756	51.9311	40.3883	32.1754	25.9135	22.3813	13.2416	4.1902	0	0	0	0	0	0	0	0	0	0	0	0	0	0	0	0	0	0	0	0	0	0	0	0	0	0	0	0	0	0	0	0	0	0	0	0
348	74.79	56.8963	65.4455	62.1436	63.6066	64.7903	63.8803	62.0365	63.6948	59.0497	56.8483	47.0335	34.5369	29.8184	25.716	16.14	8.1723	0	0	0	0	0	0	0	0	0	0	0	0	0	0	0	0	0	0	0	0	0	0	0	0	0	0	0	0	0	0	0	0	0	0	0	0
350	88.4569	75.1263	63.4938	63.4686	63.2544	66.9194	71.1554	61.1949	64.1691	61.3957	57.4093	49.7158	36.7364	33.4909	28.1914	19.7079	11.9459	4.8706	0	0	0	0	0	0	0	0	0	0	0	0	0	0	0	0	0	0	0	0	0	0	0	0	0	0	0	0	0	0	0	0	0	0	0
352	78.7506	71.7863	76.7813	73.2275	71.8163	67.9089	67.418	70.1394	67.5019	64.3471	61.9298	54.7453	46.698	36.9383	30.5084	23.0717	15.5141	7.9526	1.3991	0	0	0	0	0	0	0	0	0	0	0	0	0	0	0	0	0	0	0	0	0	0	0	0	0	0	0	0	0	0	0	0	0	0
354	103.4385	78.0458	81.6034	77.2552	73.2419	74.8864	71.7051	70.146	71.6051	68.6453	63.2289	57.1581	47.9306	40.1547	33.4501	26.2283	20.6104	14.4137	5.7699	0	0	0	0	0	0	0	0	0	0	0	0	0	0	0	0	0	0	0	0	0	0	0	0	0	0	0	0	0	0	0	0	0	0
356	95.3983	93.7543	77.5969	77.6778	82.4105	77.4829	78.3025	72.549	75.0796	69.977	67.1963	64.5778	58.1765	43.2883	37.996	32.6644	27.1602	20.5807	12.6219	3.0079	0	0	0	0	0	0	0	0	0	0	0	0	0	0	0	0	0	0	0	0	0	0	0	0	0	0	0	0	0	0	0	0	0
358	116.6795	97.8997	85.1076	85.2715	82.3445	80.2898	79.3209	77.7993	75.1556	72.9832	69.3269	67.3141	63.8044	50.2574	44.0773	38.889	33.4293	26.5201	18.9991	9.9119	3.4961	0	0	0	0	0	0	0	0	0	0	0	0	0	0	0	0	0	0	0	0	0	0	0	0	0	0	0	0	0	0	0	0
360	116.4348	100.7964	97.2144	93.7276	89.292	80.1541	79.6399	78.2667	80.5102	77.5973	77.0215	71.5304	68.8487	58.3036	49.86	44.7634	39.4018	32.1833	25.3386	15.8206	5.5133	0	0	0	0	0	0	0	0	0	0	0	0	0	0	0	0	0	0	0	0	0	0	0	0	0	0	0	0	0	0	0	0
362	124.0729	120.0347	103.5912	94.5201	93.7586	89.7069	89.4031	84.256	88.4153	85.5234	80.7315	78.9619	72.836	65.8783	55.7344	50.6705	44.9345	38.564	31.6007	21.0283	11.6377	2.8103	0	0	0	0	0	0	0	0	0	0	0	0	0	0	0	0	0	0	0	0	0	0	0	0	0	0	0	0	0	0	0
364	142.9998	125.4051	110.6745	104.5308	104.2721	97.8688	93.6652	89.8725	93.3677	88.301	86.1051	82.1069	79.4932	70.815	64.2645	56.3729	50.2767	46.1681	37.6569	27.5574	14.7924	7.8616	0	0	0	0	0	0	0	0	0	0	0	0	0	0	0	0	0	0	0	0	0	0	0	0	0	0	0	0	0	0	0
366	168.6621	143.309	125.3943	118.977	111.8801	101.9254	101.9934	94.6566	93.4187	92.1647	91.9389	89.7404	86.7019	80.0705	71.9165	61.9216	56.8873	53.5592	43.5428	33.6114	22.2049	11.6018	3.4582	0	0	0	0	0	0	0	0	0	0	0	0	0	0	0	0	0	0	0	0	0	0	0	0	0	0	0	0	0	0
368	167.599	150.9686	136.2132	128.8018	120.1323	110.4437	107.6215	99.5716	104.0152	101.3429	95.1958	95.6906	95.9203	86.7612	81.9758	67.3323	64.0246	59.1763	49.294	39.5023	29.0931	16.2239	7.0797	0	0	0	0	0	0	0	0	0	0	0	0	0	0	0	0	0	0	0	0	0	0	0	0	0	0	0	0	0	0
370	171.4779	170.5129	152.2061	134.4001	127.7715	116.8453	117.1471	108.0533	105.4761	102.6331	105.1702	102.448	102.5788	94.8965	90.6092	81.104	70.9307	64.6069	54.8981	45.2076	35.4579	22.8787	12.4963	0	0	0	0	0	0	0	0	0	0	0	0	0	0	0	0	0	0	0	0	0	0	0	0	0	0	0	0	0	0
372	205.5475	188.9535	158.0436	146.3746	135.0093	127.1975	117.661	115.1955	117.5696	114.0294	112.4205	111.6519	109.9877	105.7452	97.1254	90.3263	78.0044	70.2487	60.6248	53.0121	43.0163	27.0469	16.4283	7.8833	0	0	0	0	0	0	0	0	0	0	0	0	0	0	0	0	0	0	0	0	0	0	0	0	0	0	0	0	0
374	218.8286	180.5094	175.4227	159.6248	144.6799	136.2689	128.6151	125.7285	123.0148	121.9687	119.4812	118.5589	118.5687	114.8496	108.9633	98.2859	84.9259	77.8154	70.2668	62.6617	50.4206	36.8337	21.2815	10.3615	0	0	0	0	0	0	0	0	0	0	0	0	0	0	0	0	0	0	0	0	0	0	0	0	0	0	0	0	0
376	232.831	209.8625	179.8624	171.7422	157.578	142.485	135.8768	132.5569	129.2829	130.7616	128.6185	129.406	127.5535	122.6754	116.4888	110.0711	96.4435	87.1536	79.6396	70.7983	57.6204	43.0815	27.0139	15.0332	3.8367	0	0	0	0	0	0	0	0	0	0	0	0	0	0	0	0	0	0	0	0	0	0	0	0	0	0	0	0
378	251.786	215.232	198.3007	176.8146	164.3676	154.4007	150.1836	139.5208	140.2487	136.3103	138.4475	138.7418	137.8146	134.9192	127.1301	119.2317	107.9267	96.1877	88.7159	78.6748	64.5952	50.3658	34.2119	19.6541	10.5539	0	0	0	0	0	0	0	0	0	0	0	0	0	0	0	0	0	0	0	0	0	0	0	0	0	0	0	0
380	274.2527	232.5762	200.1789	187.9629	183.9151	165.0208	151.3197	149.8954	148.1661	147.1728	149.1965	149.015	146.7534	144.6833	137.0661	128.8157	118.2396	104.9838	96.3237	85.8678	71.3879	57.465	40.587	26.2857	14.3404	3.3656	0	0	0	0	0	0	0	0	0	0	0	0	0	0	0	0	0	0	0	0	0	0	0	0	0	0	0
382	284.8772	242.7005	224.1093	203.1289	187.2652	173.0674	165.5779	161.7933	156.5011	151.9002	155.3433	156.9277	156.9666	152.0465	149.7705	141.9571	128.9496	114.0608	104.1969	92.8159	79.9878	64.6729	47.3712	32.139	18.7649	8.9744	0	0	0	0	0	0	0	0	0	0	0	0	0	0	0	0	0	0	0	0	0	0	0	0	0	0	0
384	323.9115	273.0882	234.2741	216.1651	197.7823	182.6015	178.0534	162.7328	164.4011	161.9991	167.5361	164.4895	165.2436	165.5703	159.4229	150.7687	138.1285	126.5394	111.9398	99.6485	88.4501	71.7649	53.9946	38.4568	24.2496	12.9019	0.9622	0	0	0	0	0	0	0	0	0	0	0	0	0	0	0	0	0	0	0	0	0	0	0	0	0	0
386	320.3039	272.152	249.6851	234.9187	205.869	188.9856	181.894	174.401	166.7386	168.697	169.5602	175.9963	176.3576	175.9158	169.1937	163.7506	153.5212	137.1397	119.9997	108.3993	96.4623	79.035	60.7369	44.8718	29.6119	17.5807	6.1409	0	0	0	0	0	0	0	0	0	0	0	0	0	0	0	0	0	0	0	0	0	0	0	0	0	0
388	347.7414	290.4727	258.2189	240.4739	221.5066	199.4105	186.5829	183.6572	178.2104	176.216	180.3551	183.9341	190.2302	181.5461	181.5982	170.2248	160.9965	147.7756	128.4724	117.5174	104.1256	86.1711	67.6758	51.2767	34.0943	22.4712	9.8236	0	0	0	0	0	0	0	0	0	0	0	0	0	0	0	0	0	0	0	0	0	0	0	0	0	0
390	336.503	318.433	282.5581	256.0827	237.1507	214.1204	200.5314	190.6216	188.4932	184.5711	192.4861	194.9892	199.2146	196.1675	193.5805	182.1074	171.7088	159.6902	140.2378	126.6331	111.7859	93.304	74.6116	57.1668	44.8073	27.6145	15.6701	5.0827	0	0	0	0	0	0	0	0	0	0	0	0	0	0	0	0	0	0	0	0	0	0	0	0	0
392	386.0608	332.1508	296.0384	259.0778	242.9066	225.1221	209.5109	197.493	196.3727	193.7619	198.416	205.9977	207.9225	205.2537	204.4784	194.5237	184.3729	170.4757	154.8416	134.9329	118.3259	99.8327	82.7075	65.9794	50.251	32.8786	19.8234	9.3472	0	0	0	0	0	0	0	0	0	0	0	0	0	0	0	0	0	0	0	0	0	0	0	0	0
394	410.1439	355.1758	301.5768	281.8175	251.4494	230.6166	219.6108	203.7042	204.1513	202.0484	209.1767	212.5315	215.9367	217.4781	214.0234	204.1663	193.5252	182.454	165.6721	143.1196	126.4955	109.651	92.4683	74.6788	57.5283	40.5197	24.5533	14.4727	1.9692	0	0	0	0	0	0	0	0	0	0	0	0	0	0	0	0	0	0	0	0	0	0	0	0
396	437.1513	362.411	325.2259	285.2048	269.1278	246.8331	229.4414	214.2456	209.9628	212.0105	214.4353	224.2954	231.5416	231.5318	222.9908	217.3224	206.1688	193.9971	176.354	155.7866	136.4765	119.5259	102.5199	83.394	64.691	48.5775	30.6947	18.4392	7.7041	0	0	0	0	0	0	0	0	0	0	0	0	0	0	0	0	0	0	0	0	0	0	0	0
398	424.3065	400.529	343.0191	311.6719	281.8264	258.1585	242.0915	229.5819	222.6458	220.136	224.5276	237.828	238.7974	240.033	238.0885	229.2135	217.6804	205.8231	188.834	170.5681	146.5878	129.7724	112.6495	92.1673	72.8072	54.4725	36.9202	22.2225	12.7267	0	0	0	0	0	0	0	0	0	0	0	0	0	0	0	0	0	0	0	0	0	0	0	0
400	447.5816	393.9672	348.4443	320.2702	294.5968	274.0883	251.192	236.7806	228.5489	230.4902	236.3068	241.7598	248.4813	253.7745	250.3779	243.8821	233.2672	220.8567	204.3753	182.4452	156.6334	140.0857	121.5194	100.9211	80.8703	60.6087	43.4032	26.5213	17.2255	5.4114	0	0	0	0	0	0	0	0	0	0	0	0	0	0	0	0	0	0	0	0	0	0	0
402	488.7081	425.2395	359.5393	334.1701	307.8196	289.2364	258.7533	247.7167	237.886	236.1758	245.6122	255.7752	258.3062	264.9541	266.7844	259.1938	246.1296	234.2991	216.3079	197.2222	171.2007	150.0737	130.1067	109.505	88.7274	68.3115	52.0805	33.4829	20.7055	10.2008	0	0	0	0	0	0	0	0	0	0	0	0	0	0	0	0	0	0	0	0	0	0	0
404	499.2308	433.4786	388.6002	350.9693	326.5267	290.2509	275.3995	253.1609	244.3837	244.9817	251.5879	261.7788	272.0953	276.5463	277.2637	270.7248	257.3063	244.9542	230.2488	208.3773	186.4991	159.9574	138.68	117.9993	96.5026	76.0416	57.6351	40.2745	25.5277	15.7142	3.0488	0	0	0	0	0	0	0	0	0	0	0	0	0	0	0	0	0	0	0	0	0	0
406	505.0232	445.2774	393.4918	367.3906	337.8007	310.3308	292.4454	264.8335	260.9215	252.9355	262.0547	274.4131	281.2653	286.0453	291.1328	285.8295	273.1315	263.2896	244.7501	223.4465	199.0573	170.0555	147.4761	125.9262	104.3549	83.8482	64.7539	45.7108	29.2617	19.8909	6.8597	0	0	0	0	0	0	0	0	0	0	0	0	0	0	0	0	0	0	0	0	0	0
408	531.9244	474.0389	405.0116	381.0393	360.7806	323.684	300.1389	275.2893	272.1743	265.8991	272.7335	285.4961	292.1655	300.7845	303.219	295.8432	289.1012	275.5684	256.5461	234.6963	211.8851	182.8136	156.5088	134.0523	112.2941	91.7763	71.8249	51.8912	34.5534	23.3243	13.2931	0	0	0	0	0	0	0	0	0	0	0	0	0	0	0	0	0	0	0	0	0	0
410	531.8384	497.9067	437.8967	400.4944	369.7484	342.8567	306.222	287.3944	278.7043	275.5243	281.5214	293.3312	307.7611	310.2331	312.0302	310.5076	300.3103	287.5082	269.3868	247.9539	224.8829	197.6925	165.5192	142.0839	120.2131	100.5848	79.33	59.177	42.7502	26.731	17.3103	5.5101	0	0	0	0	0	0	0	0	0	0	0	0	0	0	0	0	0	0	0	0	0
412	584.6515	493.6237	445.5772	419.3386	381.2855	347.4926	319.2969	301.8191	286.8441	282.0688	290.3229	307.8575	312.2526	318.8656	326.934	325.078	314.3654	299.3708	284.5647	264.2991	237.6674	210.9245	174.5205	150.9868	129.9298	110.2792	86.822	67.4645	48.0584	33.0824	22.2333	10.718	0	0.0935	0.11	0	0	0	0	0	0	0	0	0	0	0	0	0	0	0	0	0	0
414	601.922	518.7456	463.2389	434.4283	401.113	362.4555	331.6672	310.5199	295.1759	286.3829	300.0919	308.304	322.4042	328.9896	337.4413	336.7055	329.3674	314.7795	300.0062	277.2501	250.5889	221.745	190.6563	160.7854	139.6245	117.7195	94.2956	73.1571	54.2266	37.3461	25.1703	15.4982	2.5902	0.2802	0.2197	0	0	0	0	0	0	0	0	0	0	0	0	0	0	0	0	0	0
416	568.6967	544.1676	488.0619	442.6361	410.9546	373.5992	340.2537	314.7922	307.7057	304.2685	305.8738	317.8172	329.256	343.9651	343.9849	348.6827	342.1274	331.1399	313.4591	291.2804	264.7325	236.0097	206.1179	170.9513	149.6383	125.4266	101.9828	78.6882	61.014	43.4279	29.4065	18.8603	9.4067	0.4673	0.3298	0	0	0	0	0	0	0	0	0	0	0	0	0	0	0	0	0	0
418	631.7526	557.358	496.5737	461.0906	424.9799	385.4458	349.9593	325.1424	315.6145	310.5446	314.9319	330.5857	339.0603	352.0261	358.4617	362.6001	353.2879	343.1764	324.2002	306.7192	277.5054	247.4201	215.7075	181.5537	157.7825	133.453	110.8882	87.0407	65.5965	49.1456	33.8936	23.8943	13.5039	0.6562	0.2205	0	0	0	0	0	0	0	0	0	0	0	0	0	0	0	0	0	0
420	654.3103	554.7917	514.7607	475.9797	444.6345	398.3793	368.142	340.5672	328.2401	319.369	322.7615	337.5313	352.3586	359.7563	369.7794	375.6174	368.4424	356.3781	340.3269	317.1939	289.7375	258.4005	228.2883	192.2265	166.9405	143.4434	120.1145	95.448	72.9769	54.5227	39.5137	26.6018	17.1843	5.8542	0.1106	0	0	0	0	0	0	0	0	0	0	0	0	0	0	0	0	0	0
422	651.4591	598.9924	538.7373	484.8439	449.6072	406.3663	373.4164	346.3628	331.8063	329.7727	335.9936	346.0032	359.9141	370.7565	377.3421	383.2536	378.9899	371.5717	353.9674	331.9275	304.0612	274.4441	242.4429	206.2311	177.1665	153.538	128.0402	103.9349	80.1813	59.9664	43.5149	30.2895	21.1988	11.1853	0	0.2561	0.3001	0	0	0	0	0	0	0	0	0	0	0	0	0	0	0	0
424	662.8739	607.7121	542.8588	495.1595	470.2256	432.8048	390.1217	359.7571	340.6902	332.203	341.6985	353.6494	367.6094	379.1034	393.669	394.6416	391.5965	383.0869	364.8721	345.5368	320.8706	286.9231	253.713	218.1954	187.4641	162.3046	136.0199	112.4808	87.3633	67.1209	48.8763	34.1086	25.0854	14.5816	3.6206	0.7709	0.6022	0	0	0	0	0	0	0	0	0	0	0	0	0	0	0	0
426	695.0077	618.0474	563.1834	517.6511	480.0212	433.5143	399.1374	364.8577	347.6872	339.8167	341.9125	356.9649	371.0859	387.9942	400.784	405.0336	404.2445	396.2759	380.5969	358.3677	333.5863	300.8673	263.8738	230.0683	198.1551	170.7049	144.9198	120.4026	94.7474	72.0956	55.4727	39.3819	28.1217	19.2004	8.0581	1.2911	0.9077	0	0	0	0	0	0	0	0	0	0	0	0	0	0	0	0
428	697.5356	632.8884	576.7563	541.4969	498.0489	449.0229	413.1925	372.0495	356.241	352.9371	355.8827	366.6935	381.444	398.4935	404.9061	417.2137	414.7545	412.6801	391.1635	374.7487	345.4951	308.8015	275.6861	244.9435	208.7178	179.4734	154.1535	126.8363	102.3678	79.6589	62.0875	44.9547	32.5154	22.3393	12.6275	1.8191	0.609	0	0	0	0	0	0	0	0	0	0	0	0	0	0	0	0
430	730.1537	659.5121	576.358	546.3151	512.0716	465.8212	422.3597	389.941	363.9178	355.9423	358.2796	374.2893	388.6973	404.78	412.61	421.9099	428.7814	422.2009	407.8786	387.0039	358.1054	324.2778	287.4324	255.7958	221.8542	188.3464	161.7193	133.3457	110.0828	86.6001	67.6474	49.7869	35.7486	25.4066	15.4209	5.8458	0.3064	0	0	0	0	0	0	0	0	0	0	0	0	0	0	0	0
432	736.9473	660.1595	596.6031	561.0313	518.0414	462.0204	430.2207	397.9916	376.5681	364.9944	363.0675	380.1811	393.8914	409.1361	425.7701	435.2484	439.5352	434.4311	416.7637	400.4289	369.6379	337.5291	300.7783	261.4903	229.627	197.1069	168.2924	141.1463	117.5386	93.5242	71.8978	55.0394	40.4187	29.2293	20.8154	10.3572	0	0.4604	0.538	0	0	0	0	0	0	0	0	0	0	0	0	0	0
434	731.3669	653.507	604.6638	561.5087	528.5255	484.733	442.742	396.9934	378.3844	367.6885	370.6739	385.465	400.6002	412.1638	431.7797	445.92	449.4777	440.7846	428.5517	410.0165	382.7669	347.3257	308.3554	274.0448	244.7607	207.1926	174.929	149.0261	124.6201	100.5198	78.1482	59.1854	45.4317	31.9818	23.9465	15.1993	4.0909	1.3884	1.0815	0	0	0	0	0	0	0	0	0	0	0	0	0	0
436	762.1239	677.957	620.9615	573.882	541.5386	491.0004	450.0237	404.8955	385.4544	377.1064	372.1753	395.8292	400.802	429.0171	440.0064	453.0675	457.6105	455.0527	438.504	419.729	390.8638	362.1764	319.4508	282.6804	252.1285	218.695	181.8629	156.7332	131.9422	107.7251	83.0513	65.8357	48.9982	36.1226	26.3452	18.3024	8.6014	2.329	1.6328	0.0491	0	0	0	0	0	0	0	0	0	0	0	0	0
438	727.8039	684.9532	653.7654	588.5608	552.7964	507.9241	456.6289	414.6777	397.6191	377.09	381.1076	392.9797	407.2987	428.2651	449.2811	456.2876	463.3686	463.3955	452.6123	433.2812	404.1633	370.9158	329.8875	292.7683	257.9158	228.4463	189.1171	164.0397	138.5833	113.7361	88.5862	68.9126	54.5128	42.0701	30.3995	20.9217	11.6786	3.2858	1.213	0.0989	0	0	0	0	0	0	0	0	0	0	0	0	0
440	742.2821	695.6935	657.1015	601.3381	552.9895	505.6322	470.6994	428.147	401.285	386.2879	390.5815	397.4715	419.8132	435.8046	453.0077	464.6244	473.6026	472.8381	459.4141	439.5922	415.1014	379.7581	339.4234	301.7454	269.472	236.6158	201.8526	170.0118	144.3593	118.7126	94.1985	75.7374	59.5451	46.0455	32.3199	25.1501	15.3812	6.678	0.7867	0.1495	0	0	0	0	0	0	0	0	0	0	0	0	0
