Description	E1-50																																																				
EEM type	"Dilution- & Scatter-corrected, Calibrated Data (ppb QSE)"																																																				
Scan date	10/1/2013 13:11																																																				
Excitation	240-500nm by 5nm																																																				
Emission	290-600nm by 2nm																																																				
Calibration	Michael_Fluoromax4_April08 (07-Apr-2008)																																																				
Slit settings	"5nm Excitation, 5nm Emission"																																																				
Dilution	5																																																				
Row 1	Excitation(nm)																																																				
Col 1	Emission(nm)																																																				
Data	Fluorescence(ppb QSE)																																																				
																																																					
	240	245	250	255	260	265	270	275	280	285	290	295	300	305	310	315	320	325	330	335	340	345	350	355	360	365	370	375	380	385	390	395	400	405	410	415	420	425	430	435	440	445	450	455	460	465	470	475	480	485	490	495	500
290	8.8744	7.636	6.5926	4.8575	3.3685	2.0735	0.9789	0	0	0	0	0	0	0	0	0	0	0	0	0	0	0	0	0	0	0	0	0	0	0	0	0	0	0	0	0	0	0	0	0	0	0	0	0	0	0	0	0	0	0	0	0	0
292	6.5404	3.2289	6.9991	4.5838	3.1277	1.8624	1.052	0.6021	0	0	0	0	0	0	0	0	0	0	0	0	0	0	0	0	0	0	0	0	0	0	0	0	0	0	0	0	0	0	0	0	0	0	0	0	0	0	0	0	0	0	0	0	0
294	9.3105	7.4574	6.6089	4.3149	2.8913	2.204	1.9002	1.1911	0	0	0	0	0	0	0	0	0	0	0	0	0	0	0	0	0	0	0	0	0	0	0	0	0	0	0	0	0	0	0	0	0	0	0	0	0	0	0	0	0	0	0	0	0
296	11.9408	5.5609	9.6214	4.0454	3.5362	3.0763	2.9376	1.7648	0	0	0	0	0	0	0	0	0	0	0	0	0	0	0	0	0	0	0	0	0	0	0	0	0	0	0	0	0	0	0	0	0	0	0	0	0	0	0	0	0	0	0	0	0
298	15.8953	12.0366	13.4841	9.5864	4.4481	3.921	3.9436	2.3207	0.6822	0	0	0	0	0	0	0	0	0	0	0	0	0	0	0	0	0	0	0	0	0	0	0	0	0	0	0	0	0	0	0	0	0	0	0	0	0	0	0	0	0	0	0	0
300	15.0771	15.8062	13.6234	9.877	5.3334	4.9591	4.6981	2.8604	1.3453	0	0	0	0	0	0	0	0	0	0	0	0	0	0	0	0	0	0	0	0	0	0	0	0	0	0	0	0	0	0	0	0	0	0	0	0	0	0	0	0	0	0	0	0
302	17.8482	17.1697	14.846	9.9367	6.2919	6.0628	5.2947	3.7164	2.0216	0	0	0	0	0	0	0	0	0	0	0	0	0	0	0	0	0	0	0	0	0	0	0	0	0	0	0	0	0	0	0	0	0	0	0	0	0	0	0	0	0	0	0	0
304	25.0229	16.9865	15.8098	10.8348	5.3681	7.1706	5.8933	4.5754	2.7002	0.7935	0	0	0	0	0	0	0	0	0	0	0	0	0	0	0	0	0	0	0	0	0	0	0	0	0	0	0	0	0	0	0	0	0	0	0	0	0	0	0	0	0	0	0
306	22.2387	18.1146	15.7652	13.8749	7.8896	8.2785	6.7771	5.3419	3.3796	1.5891	0	0	0	0	0	0	0	0	0	0	0	0	0	0	0	0	0	0	0	0	0	0	0	0	0	0	0	0	0	0	0	0	0	0	0	0	0	0	0	0	0	0	0
308	23.9554	21.1962	14.6926	12.683	9.3964	9.3847	7.6593	6.0143	4.3594	2.3855	0	0	0	0	0	0	0	0	0	0	0	0	0	0	0	0	0	0	0	0	0	0	0	0	0	0	0	0	0	0	0	0	0	0	0	0	0	0	0	0	0	0	0
310	22.4018	20.8959	21.3871	15.7183	11.1043	9.9286	8.5431	6.6877	5.341	3.1833	0.874	0	0	0	0	0	0	0	0	0	0	0	0	0	0	0	0	0	0	0	0	0	0	0	0	0	0	0	0	0	0	0	0	0	0	0	0	0	0	0	0	0	0
312	24.7874	26.0198	21.0278	15.5768	11.7097	9.0492	9.3714	7.6138	6.1861	3.9583	1.7388	0	0	0	0	0	0	0	0	0	0	0	0	0	0	0	0	0	0	0	0	0	0	0	0	0	0	0	0	0	0	0	0	0	0	0	0	0	0	0	0	0	0
314	25.2686	23.282	22.6649	16.2591	10.4495	10.8819	10.1905	8.5299	6.9227	4.8473	2.5946	0	0	0	0	0	0	0	0	0	0	0	0	0	0	0	0	0	0	0	0	0	0	0	0	0	0	0	0	0	0	0	0	0	0	0	0	0	0	0	0	0	0
316	24.9643	28.5235	27.4433	17.9941	13.5645	10.7371	12.0837	9.4046	7.6258	5.7078	3.4298	0.8536	0	0	0	0	0	0	0	0	0	0	0	0	0	0	0	0	0	0	0	0	0	0	0	0	0	0	0	0	0	0	0	0	0	0	0	0	0	0	0	0	0
318	31.4897	23.0284	24.2286	19.6853	12.9812	11.3705	11.6835	10.2284	8.4049	6.4907	4.236	1.6868	0	0	0	0	0	0	0	0	0	0	0	0	0	0	0	0	0	0	0	0	0	0	0	0	0	0	0	0	0	0	0	0	0	0	0	0	0	0	0	0	0
320	28.1537	29.1555	22.3206	17.5818	13.8669	12.5465	13.085	11.0294	9.1627	7.2134	4.9007	2.4996	0	0	0	0	0	0	0	0	0	0	0	0	0	0	0	0	0	0	0	0	0	0	0	0	0	0	0	0	0	0	0	0	0	0	0	0	0	0	0	0	0
322	26.385	27.2502	19.3793	19.1076	14.3518	11.5721	13.4623	12.1611	9.8534	7.8795	5.5219	3.2766	0.8076	0	0	0	0	0	0	0	0	0	0	0	0	0	0	0	0	0	0	0	0	0	0	0	0	0	0	0	0	0	0	0	0	0	0	0	0	0	0	0	0
324	27.8875	30.422	22.5279	22.4209	14.1134	13.5163	13.0343	11.7865	10.5149	8.4066	6.1579	4.0254	1.5875	0	0	0	0	0	0	0	0	0	0	0	0	0	0	0	0	0	0	0	0	0	0	0	0	0	0	0	0	0	0	0	0	0	0	0	0	0	0	0	0
326	34.4269	29.4205	24.388	17.7753	15.1196	11.8741	14.5146	13.2738	11.1423	8.9064	6.8034	4.652	2.3386	0	0	0	0	0	0	0	0	0	0	0	0	0	0	0	0	0	0	0	0	0	0	0	0	0	0	0	0	0	0	0	0	0	0	0	0	0	0	0	0
328	30.1259	24.1134	25.343	20.4982	15.9469	15.5668	14.1446	13.6983	11.3678	9.378	7.4179	5.2507	3.0598	0.8497	0	0	0	0	0	0	0	0	0	0	0	0	0	0	0	0	0	0	0	0	0	0	0	0	0	0	0	0	0	0	0	0	0	0	0	0	0	0	0
330	31.8911	29.8273	24.772	19.6392	16.6559	13.906	13.6866	13.4202	12.4676	9.8251	7.9193	5.8527	3.7519	1.6671	0	0	0	0	0	0	0	0	0	0	0	0	0	0	0	0	0	0	0	0	0	0	0	0	0	0	0	0	0	0	0	0	0	0	0	0	0	0	0
332	32.9644	31.046	26.9797	23.0995	15.9911	15.4808	14.654	14.9318	14.075	10.1377	8.3056	6.387	4.5975	2.4259	0	0	0	0	0	0	0	0	0	0	0	0	0	0	0	0	0	0	0	0	0	0	0	0	0	0	0	0	0	0	0	0	0	0	0	0	0	0	0
334	32.923	30.9925	26.8139	19.7305	17.2775	14.3581	13.7598	13.7642	12.6885	11.3383	8.6531	6.8773	5.384	3.1347	0.9147	0	0	0	0	0	0	0	0	0	0	0	0	0	0	0	0	0	0	0	0	0	0	0	0	0	0	0	0	0	0	0	0	0	0	0	0	0	0
336	28.0948	32.5382	24.806	21.5137	16.6657	15.5315	14.2881	13.9078	13.026	12.088	8.971	7.5419	6.0454	3.7974	1.7729	0	0	0	0	0	0	0	0	0	0	0	0	0	0	0	0	0	0	0	0	0	0	0	0	0	0	0	0	0	0	0	0	0	0	0	0	0	0
338	30.4317	29.3352	24.5348	21.7042	17.9012	14.7262	14.7631	14.0393	14.1741	12.9128	9.261	8.1589	6.591	4.7758	2.5774	0	0	0	0	0	0	0	0	0	0	0	0	0	0	0	0	0	0	0	0	0	0	0	0	0	0	0	0	0	0	0	0	0	0	0	0	0	0
340	32.0347	30.3676	24.6287	21.9786	18.1239	15.6841	14.7426	13.6503	13.8033	12.3231	10.2227	8.7216	7.0898	5.6845	3.3272	1.0725	0	0	0	0	0	0	0	0	0	0	0	0	0	0	0	0	0	0	0	0	0	0	0	0	0	0	0	0	0	0	0	0	0	0	0	0	0
342	33.0114	30.4907	27.3876	22.2285	18.6481	16.2079	15.4448	14.3247	14.0456	12.9915	11.1205	9.2804	7.9201	6.4461	4.0441	2.0858	0	0	0	0	0	0	0	0	0	0	0	0	0	0	0	0	0	0	0	0	0	0	0	0	0	0	0	0	0	0	0	0	0	0	0	0	0
344	28.8795	31.8753	26.0204	21.8463	19.3585	17.5041	16.0416	14.7697	14.6387	14.0776	12.0202	9.7934	8.6919	7.0456	5.1041	3.0401	0.7064	0	0	0	0	0	0	0	0	0	0	0	0	0	0	0	0	0	0	0	0	0	0	0	0	0	0	0	0	0	0	0	0	0	0	0	0
346	30.9762	30.8083	29.0549	20.7403	19.9611	16.7396	15.7362	14.2139	14.2306	14.0982	12.4694	10.7648	9.4299	7.6191	6.1115	3.9453	1.7624	0	0	0	0	0	0	0	0	0	0	0	0	0	0	0	0	0	0	0	0	0	0	0	0	0	0	0	0	0	0	0	0	0	0	0	0
348	36.6692	33.7518	29.6399	23.426	20.5877	17.5215	16.549	16.166	15.1056	14.8419	13.6597	11.9617	10.1418	8.5408	6.9965	4.8094	2.767	1.2762	0	0	0	0	0	0	0	0	0	0	0	0	0	0	0	0	0	0	0	0	0	0	0	0	0	0	0	0	0	0	0	0	0	0	0
350	36.5265	36.6113	29.059	25.528	19.9407	18.3696	17.7772	15.7698	16.4446	14.95	14.3196	13.1419	10.8052	9.4059	7.752	5.7083	3.7183	1.9846	0.4853	0	0	0	0	0	0	0	0	0	0	0	0	0	0	0	0	0	0	0	0	0	0	0	0	0	0	0	0	0	0	0	0	0	0
352	38.4544	34.5317	30.7103	24.3938	21.5896	18.7216	17.7839	17.2412	16.8913	16.3266	14.9128	14.1301	12.0987	10.2163	8.4603	6.5551	4.6172	2.6795	1.4894	0	0	0	0	0	0	0	0	0	0	0	0	0	0	0	0	0	0	0	0	0	0	0	0	0	0	0	0	0	0	0	0	0	0
354	39.053	37.715	31.9263	26.3924	21.9943	19.5366	18.617	17.9177	17.484	16.3357	15.7133	14.1617	13.3119	10.9703	9.1991	7.3487	5.8002	4.0973	2.378	0.5796	0	0	0	0	0	0	0	0	0	0	0	0	0	0	0	0	0	0	0	0	0	0	0	0	0	0	0	0	0	0	0	0	0
356	38.3277	36.1372	33.6022	25.7324	24.4506	20.9846	19.2833	19.0469	18.1108	17.6937	16.4851	16.0669	14.1946	11.708	10.247	8.7756	7.2393	5.4527	3.6695	1.3889	0	0	0	0	0	0	0	0	0	0	0	0	0	0	0	0	0	0	0	0	0	0	0	0	0	0	0	0	0	0	0	0	0
358	42.7078	39.3643	33.743	27.6156	24.406	21.2098	20.3001	19.4732	18.8174	18.0357	17.2076	16.8425	15.3441	13.3838	11.5931	10.1594	8.5808	6.7604	4.8334	2.7161	1.2274	0	0	0	0	0	0	0	0	0	0	0	0	0	0	0	0	0	0	0	0	0	0	0	0	0	0	0	0	0	0	0	0
360	44.6346	39.3254	34.8284	28.9958	24.7856	21.5034	22.0423	20.7701	20.2051	18.7325	18.25	17.8751	16.8838	15.0352	12.8716	11.426	9.8577	8.0067	6.0871	3.9306	1.8463	0	0	0	0	0	0	0	0	0	0	0	0	0	0	0	0	0	0	0	0	0	0	0	0	0	0	0	0	0	0	0	0
362	49.0834	41.5318	35.3252	29.9238	25.9354	23.1634	21.6604	20.519	21.3053	20.2418	19.4046	19.0689	18.3766	16.2657	14.1819	12.6917	11.0774	9.3281	7.3322	4.6154	2.8264	0.7034	0	0	0	0	0	0	0	0	0	0	0	0	0	0	0	0	0	0	0	0	0	0	0	0	0	0	0	0	0	0	0
364	53.8056	43.0869	39.3059	32.3094	28.8554	24.8653	24.6175	22.0677	22.0054	21.4759	21.1322	19.933	19.101	17.7817	15.759	13.9129	12.2547	10.7467	8.5359	6.097	3.6978	1.9603	0	0	0	0	0	0	0	0	0	0	0	0	0	0	0	0	0	0	0	0	0	0	0	0	0	0	0	0	0	0	0
366	55.3465	45.7902	40.6849	34.6819	29.7816	25.8982	24.2098	24.4685	23.8942	22.2887	21.8044	21.7511	20.3448	19.3421	17.0389	15.1019	13.5402	12.1264	9.7063	7.2968	4.971	2.4917	0.9187	0	0	0	0	0	0	0	0	0	0	0	0	0	0	0	0	0	0	0	0	0	0	0	0	0	0	0	0	0	0
368	52.3266	49.6962	43.292	38.3708	31.1408	27.9668	26.936	24.1442	23.9997	23.5707	23.2877	23.5526	22.2736	20.4865	18.8075	16.2622	14.8624	13.2381	10.8471	8.4647	6.0808	3.4861	1.6767	0	0	0	0	0	0	0	0	0	0	0	0	0	0	0	0	0	0	0	0	0	0	0	0	0	0	0	0	0	0
370	58.9802	55.9621	44.1777	38.177	33.0919	29.2184	28.1945	26.6333	26.2551	25.0369	25.1707	24.0664	24.1888	22.0141	20.9583	18.2465	16.1405	14.3123	11.9519	9.5956	7.233	4.4492	2.3463	0.1578	0	0	0	0	0	0	0	0	0	0	0	0	0	0	0	0	0	0	0	0	0	0	0	0	0	0	0	0	0
372	61.3946	58.4812	47.2027	41.3202	35.7625	30.443	28.875	27.229	27.0624	26.5369	26.3893	26.1799	25.7496	24.1376	22.3167	20.2051	17.464	15.4293	13.0863	11.1023	8.5333	5.174	3.2515	1.4915	0	0	0	0	0	0	0	0	0	0	0	0	0	0	0	0	0	0	0	0	0	0	0	0	0	0	0	0	0
374	65.7622	59.5922	52.4764	45.7444	38.8439	33.6617	30.871	29.6782	27.4389	28.4607	27.715	27.7418	27.9106	26.1992	24.1005	22.0382	18.7585	16.8812	14.9106	12.9326	9.8068	6.8578	4.1261	2.2102	0.0024	0	0	0	0	0	0	0	0	0	0	0	0	0	0	0	0	0	0	0	0	0	0	0	0	0	0	0	0
376	68.3674	60.987	51.752	45.5114	39.3321	34.4525	31.7506	30.6417	29.551	30.0587	29.9649	29.9711	29.2316	27.9368	26.2162	23.5667	20.7739	18.6412	16.6823	14.1494	11.044	7.973	5.0461	2.8777	0.6969	0	0	0	0	0	0	0	0	0	0	0	0	0	0	0	0	0	0	0	0	0	0	0	0	0	0	0	0
378	70.7441	63.4666	55.6308	48.7838	41.6707	38.0063	34.228	32.6592	31.7237	31.5115	30.6858	31.7264	31.3904	30.3327	28.0607	26.3079	22.9079	20.3415	18.3963	15.3231	12.2413	9.3537	6.3534	3.6962	1.8043	0	0	0	0	0	0	0	0	0	0	0	0	0	0	0	0	0	0	0	0	0	0	0	0	0	0	0	0
380	74.7608	64.198	56.1971	52.7938	45.3979	40.2824	35.5926	34.8227	33.3469	33.0959	32.3442	32.9258	33.5073	32.6248	30.4532	27.9546	24.7445	21.9966	19.5109	16.4666	13.407	10.6995	7.4997	4.666	2.6432	0.6566	0	0	0	0	0	0	0	0	0	0	0	0	0	0	0	0	0	0	0	0	0	0	0	0	0	0	0
382	78.4029	69.1157	62.6183	50.6372	46.5302	41.7104	38.1699	34.9027	35.1961	34.1578	35.7891	35.4114	35.0689	34.3782	32.9595	30.2643	26.9334	23.7143	20.6873	17.6601	14.9421	12.0652	8.9479	5.543	3.0412	1.5576	0	0	0	0	0	0	0	0	0	0	0	0	0	0	0	0	0	0	0	0	0	0	0	0	0	0	0
384	82.6751	77.0694	66.7189	55.745	47.3937	41.8718	39.3571	37.3323	37.2126	36.5528	36.3639	37.1699	37.0575	36.0892	35.2132	31.4974	28.7314	24.8836	21.8436	18.8335	16.4527	13.409	10.0914	6.7327	4.1492	2.2347	0.0612	0	0	0	0	0	0	0	0	0	0	0	0	0	0	0	0	0	0	0	0	0	0	0	0	0	0
386	82.5424	76.5932	66.2755	59.0129	50.6782	45.7069	40.9885	39.1273	37.4707	37.5248	38.3243	39.0154	38.7956	38.1818	36.1106	34.6706	30.3543	27.3755	23.0658	20.3969	17.9245	14.7861	11.2583	8.1565	5.2365	3.1976	0.945	0	0	0	0	0	0	0	0	0	0	0	0	0	0	0	0	0	0	0	0	0	0	0	0	0	0
388	85.6207	76.6198	70.211	62.3043	55.1534	47.3839	42.8161	40.6754	38.9845	40.2117	39.4866	40.7451	41.0054	40.112	38.3374	36.1796	32.5683	28.9568	24.3686	22.0299	19.3758	16.0242	12.4621	9.1115	6.1999	3.9162	1.8783	0	0	0	0	0	0	0	0	0	0	0	0	0	0	0	0	0	0	0	0	0	0	0	0	0	0
390	88.9531	80.5671	74.8444	64.5789	55.8211	50.9378	45.0068	42.7453	40.8746	40.8329	41.6894	43.1147	43.1434	42.3213	41.2983	37.6378	34.8555	31.2556	26.6966	23.6626	20.8266	17.2617	13.6653	10.3069	7.4446	4.6626	2.5755	0.7393	0	0	0	0	0	0	0	0	0	0	0	0	0	0	0	0	0	0	0	0	0	0	0	0	0
392	97.5926	88.4227	74.5494	66.3632	59.4826	50.7326	47.0544	43.4557	42.1197	42.5769	43.3018	44.3049	44.7472	44.4866	42.6679	39.6203	36.4919	33.1276	28.8852	25.1433	21.9528	18.388	15.0092	11.619	8.4882	5.5888	3.4798	1.5104	0	0	0	0	0	0	0	0	0	0	0	0	0	0	0	0	0	0	0	0	0	0	0	0	0
394	104.9555	88.1532	78.2768	69.2657	61.2182	53.5162	47.6872	45.5614	44.0464	42.6691	44.842	46.456	46.4616	46.2984	44.6192	42.179	38.4141	34.8841	30.8589	26.6037	23.3032	19.97	16.5085	12.914	9.7842	6.7352	4.3564	2.4158	0.3265	0	0	0	0	0	0	0	0	0	0	0	0	0	0	0	0	0	0	0	0	0	0	0	0
396	100.4049	93.5041	82.5291	71.744	62.0157	55.0654	50.0021	47.5839	44.3867	45.2672	46.0279	47.634	48.6708	48.4146	47.0899	43.6969	40.8675	36.4877	32.797	28.4691	24.9124	21.5644	17.9051	14.2138	10.7303	8.125	5.2462	3.12	1.0869	0	0	0	0	0	0	0	0	0	0	0	0	0	0	0	0	0	0	0	0	0	0	0	0
398	103.1533	95.8452	87.3449	75.5902	65.0149	57.2975	52.6233	49.7024	47.0516	46.8957	47.891	50.146	51.2282	50.9213	48.9533	46.2095	43.329	39.5135	35.2041	30.8897	26.5469	23.0654	19.318	15.5249	12.1807	9.1091	6.3121	3.8168	2.1978	0	0	0	0	0	0	0	0	0	0	0	0	0	0	0	0	0	0	0	0	0	0	0	0
400	108.3418	99.4836	90.0752	79.7138	68.8047	60.8302	53.9599	50.8261	48.9089	49.2274	49.5439	51.5001	51.9743	52.631	51.8493	48.6683	45.157	41.5329	36.6381	33.1809	28.1706	24.4998	20.6412	16.9069	13.6216	10.4545	7.4681	4.5691	2.9518	0.9219	0	0	0	0	0	0	0	0	0	0	0	0	0	0	0	0	0	0	0	0	0	0	0
402	114.142	107.6314	92.3334	80.9006	72.0081	63.0407	56.5347	51.0881	49.5458	49.2939	51.2706	53.8473	54.9176	54.6729	53.506	51.1686	47.8623	43.5931	39.2856	35.1237	30.2519	25.88	21.9177	18.407	15.0273	11.736	8.7286	5.6675	3.5748	1.7922	0	0	0	0	0	0	0	0	0	0	0	0	0	0	0	0	0	0	0	0	0	0	0
404	114.7839	108.5499	94.7723	83.9528	74.4704	66.7992	58.7643	53.5784	51.9539	50.3453	54.4422	55.7429	56.3442	57.112	55.9574	53.6659	50.4368	45.3504	41.6772	37.2847	32.3962	27.2453	23.3423	19.8915	16.4184	12.9496	9.7219	6.7443	4.1572	2.7207	0.3885	0	0	0	0	0	0	0	0	0	0	0	0	0	0	0	0	0	0	0	0	0	0
406	121.637	105.9918	96.9102	87.9645	76.1958	68.0559	60.4422	57.0349	53.085	53.3485	53.1925	56.725	58.3844	58.0909	57.8562	55.6103	51.4912	47.6513	43.5439	38.7382	34.326	28.6493	24.8788	21.3094	17.7658	14.1769	10.9585	7.7742	5.0731	3.3485	1.1246	0	0	0	0	0	0	0	0	0	0	0	0	0	0	0	0	0	0	0	0	0	0
408	126.4613	114.2988	102.5306	92.839	80.9626	71.2608	63.0519	57.9519	55.3393	54.9091	56.2588	57.8065	60.6228	61.2439	59.8994	57.4481	53.4414	50.2396	46.2898	41.1622	35.9895	31.7561	26.455	22.7608	19.0154	15.4252	11.9311	8.754	6.0119	3.9933	2.0491	0	0	0	0	0	0	0	0	0	0	0	0	0	0	0	0	0	0	0	0	0	0
410	127.9055	117.8576	105.4435	94.5232	84.3163	72.2933	65.5251	59.2752	57.4532	56.1459	58.4819	60.6375	62.2122	63.1739	62.6358	60.6109	55.8253	52.6283	47.7211	43.2974	38.1258	33.9039	28.0273	24.082	20.2617	16.7961	13.2155	10.1413	6.987	4.4689	2.8422	0.878	0	0	0	0	0	0	0	0	0	0	0	0	0	0	0	0	0	0	0	0	0
412	137.6231	122.2361	107.2924	94.5499	84.8616	77.1724	68.0706	62.1155	59.7545	57.4454	58.6121	61.6704	62.655	65.0727	63.6026	62.8193	58.6953	54.5525	49.8572	45.6595	40.8392	35.9364	29.5981	25.4666	21.7591	18.2906	14.4976	11.3155	8.1571	5.4014	3.6671	1.8169	0	0.0002	0.0002	0	0	0	0	0	0	0	0	0	0	0	0	0	0	0	0	0	0
414	134.7478	121.3268	105.0809	97.9855	88.1523	76.1058	68.016	62.6913	60.389	58.9865	60.7289	63.3496	65.14	65.9849	66.1968	64.1187	60.5159	56.8764	51.815	47.741	42.9097	37.1913	31.7551	26.9761	23.2531	19.5642	15.7767	11.9716	8.8044	6.003	4.2152	2.4896	0.3706	0.0005	0.0004	0	0	0	0	0	0	0	0	0	0	0	0	0	0	0	0	0	0
416	143.7795	127.7225	111.8315	100.7068	91.9597	79.8132	70.8726	65.1071	60.5942	61.1676	60.9766	64.1577	66.0464	67.1729	67.9359	66.0528	62.5856	58.8061	54.5679	50.2004	44.5929	39.4287	34.1335	28.547	24.8	20.8822	17.0915	13.3261	9.7853	7.3026	5.0547	3.0919	1.3822	0.0008	0.0006	0	0	0	0	0	0	0	0	0	0	0	0	0	0	0	0	0	0
418	143.0327	133.4882	116.0704	103.696	93.9928	81.3086	73.899	66.8382	63.0547	61.3576	62.9044	64.4558	68.3631	69.474	69.354	67.2973	65.2498	61.2032	57.2963	52.0405	46.2299	41.7655	36.0556	30.1901	26.1907	22.2535	18.524	14.6157	11.1074	8.111	5.6224	3.7905	2.0562	0.0012	0.0004	0	0	0	0	0	0	0	0	0	0	0	0	0	0	0	0	0	0
420	152.163	135.9299	117.1363	107.436	96.6481	85.1391	75.2319	67.7181	65.5138	63.163	64.1477	66.5222	68.758	70.2889	70.6305	69.6597	66.5061	63.285	58.9626	54.8908	48.9012	43.2927	37.9776	31.844	27.6641	23.7803	19.948	15.9138	12.3255	9.1034	6.4807	4.3623	2.8724	0.837	0.0002	0	0	0	0	0	0	0	0	0	0	0	0	0	0	0	0	0	0
422	146.4939	137.378	119.5389	109.504	96.1596	86.5157	78.6564	70.0671	66.7479	64.7953	65.2221	67.0033	70.2311	71.9484	72.5359	71.2664	68.6896	65.2455	61.1713	56.9183	50.9929	45.2974	39.9323	34.268	29.2281	25.3234	21.203	17.2243	13.2662	10.2265	7.5011	4.8557	3.5243	1.8124	0	0.0336	0.0394	0	0	0	0	0	0	0	0	0	0	0	0	0	0	0	0
424	154.068	132.4365	122.0987	112.0063	102.1818	88.882	79.7523	70.6544	66.4828	66.1081	67.5582	69.1305	71.1894	73.663	74.0558	72.8498	70.8719	66.8139	62.9599	58.1768	52.692	46.6742	41.8674	35.9913	30.803	26.693	22.4665	18.5438	14.3574	11.0285	8.1663	5.677	4.0008	2.3801	0.5218	0.1012	0.079	0	0	0	0	0	0	0	0	0	0	0	0	0	0	0	0
426	151.6018	142.1866	123.9587	114.4099	102.2688	91.8152	80.0448	74.2157	67.7321	66.6548	66.6005	69.7447	72.8093	73.4491	74.5847	74.2946	72.6045	68.7975	64.9395	60.4245	54.4373	49.4249	43.6802	37.759	32.4413	28.0248	23.8439	19.7402	15.4809	12.2261	9.0515	6.4722	4.5659	3.0579	1.3435	0.1694	0.1191	0	0	0	0	0	0	0	0	0	0	0	0	0	0	0	0
428	154.0758	140.5414	129.3512	118.4706	102.886	93.8844	82.5877	73.9306	69.2732	68.6107	68.3191	70.0458	72.5157	74.663	75.6272	76.2137	73.7099	71.2004	66.9066	61.7843	57.169	51.2101	45.0465	39.7005	34.3297	29.4163	25.2751	20.6508	16.642	12.9773	10.1811	7.4662	5.4095	3.5616	1.9939	0.2387	0.0799	0	0	0	0	0	0	0	0	0	0	0	0	0	0	0	0
430	162.6207	145.0103	126.6927	118.0958	105.5954	95.7964	82.4553	76.2067	70.6898	68.2921	69.4238	70.5764	74.5105	76.3915	76.698	76.4564	74.9656	72.9548	68.4569	65.0146	58.9335	53.0566	47.1462	41.1932	35.8738	30.8244	26.3909	21.5719	17.8173	14.0567	10.9381	8.2928	6.17	4.1263	2.5819	0.8936	0.0402	0	0	0	0	0	0	0	0	0	0	0	0	0	0	0	0
432	151.7752	145.0017	128.3709	121.1771	109.2098	98.3417	85.4451	75.7179	73.0359	68.913	69.8715	72.2549	74.6443	76.541	78.1087	78.0177	75.6758	74.1034	70.3541	65.4824	60.6641	54.6811	48.2351	42.7624	37.3496	32.2134	27.3219	22.76	18.9596	15.1326	11.8108	8.8809	6.7656	4.7806	3.3533	1.7586	0	0.0513	0.06	0	0	0	0	0	0	0	0	0	0	0	0	0	0
434	157.3149	148.323	136.1289	122.7846	108.9249	97.3877	89.5599	78.3469	72.9321	69.9123	70.6645	71.1178	75.368	76.9248	78.4998	79.6479	76.9962	75.8699	72.0279	67.1338	62.0222	56.3095	49.9927	43.9452	38.8396	33.8722	28.2617	23.96	20.0604	16.2196	12.6227	9.5276	7.3155	5.4037	3.9643	2.5173	0.6207	0.1548	0.1206	0	0	0	0	0	0	0	0	0	0	0	0	0	0
436	165.5917	154.3129	134.0548	119.9585	112.9759	100.1239	88.9808	80.3274	74.161	70.9459	71.2535	73.3765	74.6953	77.1693	79.1139	80.0627	78.8485	77.2165	72.6917	69.0231	63.6489	58.0071	51.4823	45.6255	40.7336	35.3816	29.2478	25.1509	21.1994	17.3399	13.4071	10.3806	8.054	5.7378	4.3713	2.9082	1.382	0.2596	0.182	0	0	0	0	0	0	0	0	0	0	0	0	0	0
438	167.4679	150.0087	141.386	127.5604	116.1062	102.5059	91.0553	82.4399	75.4662	71.918	72.0534	73.2356	74.9298	77.8935	80.3514	80.0424	79.9751	77.5597	74.4823	70.8886	65.4609	59.0765	52.8318	47.2499	41.6168	36.1665	30.2834	26.2914	22.2384	18.283	14.2988	11.2512	8.857	6.6785	4.8572	3.2866	1.8361	0.3663	0.1223	0	0	0	0	0	0	0	0	0	0	0	0	0	0
440	166.7397	150.7331	136.3394	124.951	113.8144	101.7453	92.4386	82.4586	76.9884	71.3056	70.4436	74.877	76.6413	79.0392	79.9902	80.8258	81.1769	78.5893	76.0321	72.0538	66.96	61.274	54.286	48.4116	43.0697	37.5167	32.1671	27.2323	23.1482	19.0435	15.2031	12.1752	9.6252	7.4128	5.4763	3.8197	2.4658	0.8514	0.0616	0	0	0	0	0	0	0	0	0	0	0	0	0	0
442	162.1883	154.7475	142.1819	128.6661	116.0197	102.7735	90.435	82.9778	76.8945	73.3553	72.6648	74.5036	76.8233	79.3689	81.3801	82.7253	81.9068	79.4859	76.8032	73.0765	67.837	61.5953	54.8105	48.4865	44.2098	39.1776	33.0012	28.1632	24.051	19.55	16.1073	12.9532	10.1759	7.818	5.8878	4.4682	3.0011	1.7214	0	0.0295	0.0341	0	0	0	0	0	0	0	0	0	0	0	0
