Description	EOS (clean blank)																																																				
EEM type	"Dilution- & Scatter-corrected, Calibrated Data (ppb QSE)"																																																				
Scan date	10/1/2010 15:27																																																				
Excitation	240-500nm by 5nm																																																				
Emission	290-600nm by 2nm																																																				
Calibration	Michael_Fluoromax4_April08 (07-Apr-2008)																																																				
Slit settings	"5nm Excitation, 5nm Emission"																																																				
Dilution	50																																																				
Row 1	Excitation(nm)																																																				
Col 1	Emission(nm)																																																				
Data	Fluorescence(ppb QSE)																																																				
																																																					
	240	245	250	255	260	265	270	275	280	285	290	295	300	305	310	315	320	325	330	335	340	345	350	355	360	365	370	375	380	385	390	395	400	405	410	415	420	425	430	435	440	445	450	455	460	465	470	475	480	485	490	495	500
290	1281.6456	1300.4721	1022.3605	771.8141	559.1534	375.4278	222.8606	89.9382	60.6767	31.0534	0	0	0	0	0	0	0	0	0	0	0	0	0	0	0	0	0	0	0	0	0	0	0	0	0	0	0	0	0	0	0	0	0	0	0	0	0	0	0	0	0	0	0
292	1425.4704	1446.8782	1234.1242	870.9101	651.3889	461.2722	288.6275	113.5876	57.1744	30.189	6.2205	0	0	0	0	0	0	0	0	0	0	0	0	0	0	0	0	0	0	0	0	0	0	0	0	0	0	0	0	0	0	0	0	0	0	0	0	0	0	0	0	0	0
294	1511.9012	1541.9663	1279.9986	968.1807	741.9252	511.4891	305.4148	136.7269	84.8555	31.6916	12.3068	0	0	0	0	0	0	0	0	0	0	0	0	0	0	0	0	0	0	0	0	0	0	0	0	0	0	0	0	0	0	0	0	0	0	0	0	0	0	0	0	0	0
296	1623.4779	1654.2401	1449.9227	1062.1207	774.1543	526.1959	279.8888	159.1388	115.1079	33.109	18.2342	0	0	0	0	0	0	0	0	0	0	0	0	0	0	0	0	0	0	0	0	0	0	0	0	0	0	0	0	0	0	0	0	0	0	0	0	0	0	0	0	0	0
298	1967.835	2020.7933	1654.1929	1233.0908	786.0532	539.6348	254.5914	180.7229	123.6381	34.4339	11.9851	0	0	0	0	0	0	0	0	0	0	0	0	0	0	0	0	0	0	0	0	0	0	0	0	0	0	0	0	0	0	0	0	0	0	0	0	0	0	0	0	0	0
300	2188.6624	2212.5215	1885.5877	1320.7895	797.3139	509.2893	252.5421	201.6598	131.8862	64.0687	5.9071	0	0	0	0	0	0	0	0	0	0	0	0	0	0	0	0	0	0	0	0	0	0	0	0	0	0	0	0	0	0	0	0	0	0	0	0	0	0	0	0	0	0
302	2275.0921	2490.1309	2044.7385	1433.9059	821.26	487.4758	277.1925	204.519	142.1155	90.6319	0	0	0	0	0	0	0	0	0	0	0	0	0	0	0	0	0	0	0	0	0	0	0	0	0	0	0	0	0	0	0	0	0	0	0	0	0	0	0	0	0	0	0
304	2515.6045	2434.6683	2100.3452	1515.0664	847.5562	465.6161	301.9532	207.3867	152.3824	97.581	25.323	0	0	0	0	0	0	0	0	0	0	0	0	0	0	0	0	0	0	0	0	0	0	0	0	0	0	0	0	0	0	0	0	0	0	0	0	0	0	0	0	0	0
306	2399.6511	2459.0808	2077.8385	1470.7701	817.4533	443.4863	304.9082	213.8648	162.6053	104.502	37.0547	0	0	0	0	0	0	0	0	0	0	0	0	0	0	0	0	0	0	0	0	0	0	0	0	0	0	0	0	0	0	0	0	0	0	0	0	0	0	0	0	0	0
308	2363.1882	2367.1533	1988.2895	1399.2915	814.5395	421.1212	307.7145	223.9599	173.9779	111.3847	39.4471	0	0	0	0	0	0	0	0	0	0	0	0	0	0	0	0	0	0	0	0	0	0	0	0	0	0	0	0	0	0	0	0	0	0	0	0	0	0	0	0	0	0
310	2245.7227	2316.9441	1873.5367	1370.5083	797.4556	401.2793	310.5243	234.0722	185.3708	118.278	49.8276	0	0	0	0	0	0	0	0	0	0	0	0	0	0	0	0	0	0	0	0	0	0	0	0	0	0	0	0	0	0	0	0	0	0	0	0	0	0	0	0	0	0
312	2260.2484	2335.3581	1859.7459	1351.1098	795.9704	408.7743	311.4359	243.9143	193.303	124.4259	59.8632	0	0	0	0	0	0	0	0	0	0	0	0	0	0	0	0	0	0	0	0	0	0	0	0	0	0	0	0	0	0	0	0	0	0	0	0	0	0	0	0	0	0
314	2211.7013	2130.2871	1794.1715	1334.2833	788.9831	391.9674	312.3189	253.64	198.8626	133.6855	69.7914	0	0	0	0	0	0	0	0	0	0	0	0	0	0	0	0	0	0	0	0	0	0	0	0	0	0	0	0	0	0	0	0	0	0	0	0	0	0	0	0	0	0
316	1978.247	2090.5903	1764.47	1287.837	734.1621	384.2618	319.0455	262.3718	203.6711	142.3658	79.3481	13.6766	0	0	0	0	0	0	0	0	0	0	0	0	0	0	0	0	0	0	0	0	0	0	0	0	0	0	0	0	0	0	0	0	0	0	0	0	0	0	0	0	0
318	2016.7451	1955.4836	1655.8236	1183.6049	703.9716	370.9049	303.9162	269.999	210.7184	150.3227	88.4313	27.0295	0	0	0	0	0	0	0	0	0	0	0	0	0	0	0	0	0	0	0	0	0	0	0	0	0	0	0	0	0	0	0	0	0	0	0	0	0	0	0	0	0
320	1813.4431	1778.2169	1506.3404	1085.9045	678.8924	344.7501	305.3152	277.3617	217.5328	157.9989	90.7369	40.058	0	0	0	0	0	0	0	0	0	0	0	0	0	0	0	0	0	0	0	0	0	0	0	0	0	0	0	0	0	0	0	0	0	0	0	0	0	0	0	0	0
322	1619.4793	1605.8738	1354.8327	1018.6821	605.2243	326.3801	292.8389	272.7082	223.0704	164.6708	92.5264	52.517	10.6943	0	0	0	0	0	0	0	0	0	0	0	0	0	0	0	0	0	0	0	0	0	0	0	0	0	0	0	0	0	0	0	0	0	0	0	0	0	0	0	0
324	1457.1708	1427.5842	1259.5472	945.3907	560.6116	313.748	281.6098	258.3676	228.2876	164.9552	98.7452	64.5276	21.0232	0	0	0	0	0	0	0	0	0	0	0	0	0	0	0	0	0	0	0	0	0	0	0	0	0	0	0	0	0	0	0	0	0	0	0	0	0	0	0	0
326	1356.1408	1311.2862	1136.8907	833.8247	530.935	307.879	270.791	273.9146	233.0807	165.0548	109.1082	68.2293	30.9724	0	0	0	0	0	0	0	0	0	0	0	0	0	0	0	0	0	0	0	0	0	0	0	0	0	0	0	0	0	0	0	0	0	0	0	0	0	0	0	0
328	1247.5725	1210.6083	1055.0526	765.0919	492.7363	278.6826	261.1959	247.5284	233.9597	164.9655	118.9749	71.7198	40.5276	8.0362	0	0	0	0	0	0	0	0	0	0	0	0	0	0	0	0	0	0	0	0	0	0	0	0	0	0	0	0	0	0	0	0	0	0	0	0	0	0	0
330	1129.8336	1091.3674	913.5592	691.2033	462.4523	267.1383	262.1443	253.4765	230.3168	164.7592	121.1713	77.5378	49.6974	15.7665	0	0	0	0	0	0	0	0	0	0	0	0	0	0	0	0	0	0	0	0	0	0	0	0	0	0	0	0	0	0	0	0	0	0	0	0	0	0	0
332	995.8691	1020.9758	848.3335	627.7993	412.9366	274.4109	234.5245	234.7526	227.3924	162.6696	121.8696	84.6205	51.7539	22.9424	0	0	0	0	0	0	0	0	0	0	0	0	0	0	0	0	0	0	0	0	0	0	0	0	0	0	0	0	0	0	0	0	0	0	0	0	0	0	0
334	917.2196	904.3498	746.5182	572.5843	383.7964	252.184	220.5217	220.3214	220.4914	172.7545	122.2975	91.1208	53.5899	29.6459	7.5899	0	0	0	0	0	0	0	0	0	0	0	0	0	0	0	0	0	0	0	0	0	0	0	0	0	0	0	0	0	0	0	0	0	0	0	0	0	0
336	813.1565	731.737	665.7072	516.2678	357.2762	240.4039	212.9978	217.9353	197.4294	171.3595	122.5798	91.5441	57.1711	35.9129	14.7114	0	0	0	0	0	0	0	0	0	0	0	0	0	0	0	0	0	0	0	0	0	0	0	0	0	0	0	0	0	0	0	0	0	0	0	0	0	0
338	721.4933	714.8573	564.6144	454.279	316.2334	221.0713	204.7501	207.8265	204.8234	171.4831	122.7291	91.8552	62.3308	42.1865	21.3864	0	0	0	0	0	0	0	0	0	0	0	0	0	0	0	0	0	0	0	0	0	0	0	0	0	0	0	0	0	0	0	0	0	0	0	0	0	0
340	616.222	619.2795	508.4029	423.4667	297.7148	215.1528	199.562	196.1983	192.3754	160.8255	127.2762	91.964	67.0476	47.9888	27.6068	10.5307	0	0	0	0	0	0	0	0	0	0	0	0	0	0	0	0	0	0	0	0	0	0	0	0	0	0	0	0	0	0	0	0	0	0	0	0	0
342	568.669	563.5095	476.1962	392.274	273.6024	211.3848	195.3719	203.0654	193.2446	166.7131	131.51	92.3728	72.1058	53.4783	33.5544	20.4813	2.7276	0	0	0	0	0	0	0	0	0	0	0	0	0	0	0	0	0	0	0	0	0	0	0	0	0	0	0	0	0	0	0	0	0	0	0	0
344	495.7365	516.8154	415.5285	342.5657	254.6918	203.9511	197.4998	190.8107	190.5814	162.6019	136.5736	92.6115	76.7691	58.4503	43.8593	29.8508	13.6334	3.1491	0	0	0	0	0	0	0	0	0	0	0	0	0	0	0	0	0	0	0	0	0	0	0	0	0	0	0	0	0	0	0	0	0	0	0
346	468.8868	424.795	420.7214	333.5159	252.2161	192.5	186.2073	185.6541	182.7267	158.6439	140.6663	101.7224	81.2505	63.2064	53.6469	38.74	22.5126	6.904	0	0	0	0	0	0	0	0	0	0	0	0	0	0	0	0	0	0	0	0	0	0	0	0	0	0	0	0	0	0	0	0	0	0	0
348	471.6247	441.2975	375.2281	294.5397	238.7126	206.5571	190.9869	193.2684	186.4476	167.9554	146.0033	116.762	85.6012	72.2802	62.3619	47.2244	30.968	18.1632	6.2778	0	0	0	0	0	0	0	0	0	0	0	0	0	0	0	0	0	0	0	0	0	0	0	0	0	0	0	0	0	0	0	0	0	0
350	478.465	409.8432	353.3492	297.3326	237.9158	195.8264	194.1643	187.9244	191.3607	171.6708	142.138	117.6287	89.625	80.8111	69.9401	54.8013	38.9641	25.3643	15.0437	4.9123	0	0	0	0	0	0	0	0	0	0	0	0	0	0	0	0	0	0	0	0	0	0	0	0	0	0	0	0	0	0	0	0	0
352	440.0212	396.6052	352.0402	288.7652	241.7743	194.3354	192.7884	194.8857	189.0534	172.9554	157.5292	125.5745	110.7659	88.8168	77.0534	61.9307	46.5098	31.0943	19.6823	9.7815	0	0.4283	0.4861	0	0	0	0	0	0	0	0	0	0	0	0	0	0	0	0	0	0	0	0	0	0	0	0	0	0	0	0	0	0
354	429.6348	365.2519	316.6405	278.1118	219.5155	199.4415	193.8959	190.7725	190.1731	179.0798	155.4928	135.4439	116.0057	96.2824	83.2867	68.6031	57.6032	44.9353	29.2388	17.3177	4.9589	1.2505	0.9461	0	0	0	0	0	0	0	0	0	0	0	0	0	0	0	0	0	0	0	0	0	0	0	0	0	0	0	0	0	0
356	400.4365	380.406	301.4761	257.6137	221.4256	198.8409	201.4581	198.9428	188.6708	178.7989	162.7943	144.3882	132.3426	103.5627	93.2637	82.8924	71.8849	58.1759	41.5838	25.1074	14.0191	2.0337	1.3848	0	0	0	0	0	0	0	0	0	0	0	0	0	0	0	0	0	0	0	0	0	0	0	0	0	0	0	0	0	0
358	380.9714	348.2501	293.9325	260.518	238.5702	205.7935	205.6842	204.9158	200.9191	181.7281	171.1249	154.8867	144.9629	120.0341	106.8233	96.7387	85.1472	70.9622	55.6219	34.2283	23.3038	2.7863	0.9034	0	0	0	0	0	0	0	0	0	0	0	0	0	0	0	0	0	0	0	0	0	0	0	0	0	0	0	0	0	0
360	418.5878	342.1619	313.6644	273.0635	239.3119	211.8206	203.5587	205.7155	208.7498	195.1129	182.9208	168.3579	152.0647	132.4635	119.7111	109.3713	97.7704	83.1425	69.031	49.087	29.2649	14.6176	0.4418	0	0	0	0	0	0	0	0	0	0	0	0	0	0	0	0	0	0	0	0	0	0	0	0	0	0	0	0	0	0
362	428.9061	353.1051	317.5813	270.5529	240.7881	226.7736	223.3527	212.3724	213.3073	202.8348	194.3928	179.0739	168.8915	152.0503	132.8587	121.9437	109.772	97.3734	82.3723	56.6833	36.6864	21.1845	0	1.8827	2.1709	0	0	0	0	0	0	0	0	0	0	0	0	0	0	0	0	0	0	0	0	0	0	0	0	0	0	0	0
364	461.4789	378.8345	327.916	278.132	261.9412	236.6387	233.3679	227.1835	223.2649	213.8148	207.6473	193.8752	183.4874	165.2751	152.8876	134.0755	121.3559	115.0448	95.2695	70.649	47.3738	32.1148	14.1719	5.5598	4.2737	0	0	0	0	0	0	0	0	0	0	0	0	0	0	0	0	0	0	0	0	0	0	0	0	0	0	0	0
366	451.2514	366.2781	331.1199	289.0198	258.1646	244.787	238.7217	237.1203	239.8554	220.6505	224.2764	207.2786	196.7086	187.2765	168.6592	145.8866	136.4878	132.2281	107.811	84.4045	58.7369	40.1165	25.236	9.1268	6.3138	1.333	0	0	0	0	0	0	0	0	0	0	0	0	0	0	0	0	0	0	0	0	0	0	0	0	0	0	0
368	456.5671	391.463	343.6977	317.5025	286.5844	261.5628	258.5095	248.508	250.298	233.9029	233.4963	222.9248	218.0031	200.1812	189.9657	157.4107	153.1378	144.1652	120.3428	97.7951	72.2985	47.146	29.4837	12.5926	7.2245	2.6272	0	0	0	0	0	0	0	0	0	0	0	0	0	0	0	0	0	0	0	0	0	0	0	0	0	0	0
370	482.0473	421.1469	372.7088	308.6115	292.6307	267.2155	265.6034	263.9777	258.8581	251.1206	243.9447	237.6827	237.1488	219.1375	207.21	188.5737	169.2508	155.6996	133.081	110.7624	88.2801	59.4959	40.0803	20.9651	8.1056	3.8827	0	0	0	0	0	0	0	0	0	0	0	0	0	0	0	0	0	0	0	0	0	0	0	0	0	0	0
372	526.1781	429.8618	384.208	338.8156	316.3503	284.7722	282.6207	276.6287	278.3253	268.0625	263.4019	256.531	246.7263	241.7643	225.7331	210.6453	185.7775	168.3026	146.1398	128.5666	105.2079	71.2967	49.3296	32.5319	9.003	6.8721	3.5382	0	0	0	0	0	0	0	0	0	0	0	0	0	0	0	0	0	0	0	0	0	0	0	0	0	0
374	552.5127	467.6349	395.9771	355.2906	332.494	302.3738	299.4687	297.7624	288.1154	288.5078	283.8582	279.7012	273.737	264.3334	248.247	230.551	201.9521	185.5742	168.1523	150.5923	121.7925	88.4384	58.8932	40.5442	21.932	11.5305	7.006	0	0	0	0	0	0	0	0	0	0	0	0	0	0	0	0	0	0	0	0	0	0	0	0	0	0
376	557.8357	484.2985	413.8596	376.5251	358.3661	329.199	315.3424	306.9073	310.6411	297.2774	302.6126	297.6506	298.8222	283.4808	268.6899	251.9405	226.2293	206.8953	189.5483	169.3806	137.9131	102.585	72.0644	48.724	30.5036	16.0801	10.3942	2.9018	0	0	0	0	0	0	0	0	0	0	0	0	0	0	0	0	0	0	0	0	0	0	0	0	0
378	609.1548	496.6684	455.2848	414.6879	372.8151	352.0008	342.8296	331.259	330.7025	321.1741	323.311	321.2799	319.9764	310.1713	295.3293	274.0031	249.3797	227.5189	210.2652	187.5665	153.5232	120.258	85.0778	56.8388	42.5	20.5086	13.5114	5.7345	0	0	0	0	0	0	0	0	0	0	0	0	0	0	0	0	0	0	0	0	0	0	0	0	0
380	646.3846	537.658	478.9298	424.6593	404.0706	365.6932	359.3355	352.8888	352.4774	333.7991	348.2481	342.0335	345.1404	335.1883	318.3267	293.8052	274.6086	247.6029	227.8457	203.9278	168.7264	137.4877	98.0539	70.8622	52.1255	30.1204	16.5504	8.4979	0	0	0	0	0	0	0	0	0	0	0	0	0	0	0	0	0	0	0	0	0	0	0	0	0
382	699.4171	599.9877	516.7662	443.7348	419.3352	396.1654	377.4244	373.9167	360.5727	360.7758	360.0205	371.2733	367.468	356.0719	346.5894	324.6968	301.0737	268.3703	246.0685	219.5101	188.3524	154.9783	118.467	84.8128	60.6348	40.3662	19.6	12.2735	4.4911	0	0	0	0	0	0	0	0	0	0	0	0	0	0	0	0	0	0	0	0	0	0	0	0
384	713.3226	609.9871	529.7249	487.4703	440.8345	416.9404	405.9971	384.9968	385.7197	377.4588	383.5146	391.6819	393.2329	381.0975	369.0883	347.8616	324.4708	290.1598	263.994	234.835	207.6693	172.1931	134.9324	99.1412	68.8675	47.8779	27.0794	17.0122	8.9126	0	0	0	0	0	0	0	0	0	0	0	0	0	0	0	0	0	0	0	0	0	0	0	0
386	759.6257	639.6587	552.6825	495.6399	463.3681	440.5224	412.8359	417.4581	401.4052	398.8021	399.2159	413.1057	420.9187	401.028	392.2584	367.1939	345.8928	318.5256	282.6781	254.8413	226.517	189.8389	151.7013	114.7201	83.2584	59.2019	36.1115	21.7562	13.3139	3.6507	0	0	0	0	0	0	0	0	0	0	0	0	0	0	0	0	0	0	0	0	0	0	0
388	750.3284	690.4349	578.0244	517.5898	481.6224	466.6344	442.782	428.0912	419.8249	414.7547	424.0594	434.8243	438.9103	430.982	416.4024	395.3045	368.852	335.0367	302.3438	275.7212	245.127	207.6073	168.9677	130.0045	98.1011	68.9127	43.9049	26.559	17.3181	7.2981	0	0	0	0	0	0	0	0	0	0	0	0	0	0	0	0	0	0	0	0	0	0	0
390	836.7167	710.7874	607.0234	549.1564	523.2969	482.7048	463.095	446.3273	437.7628	443.673	448.8536	457.3684	469.0416	463.5175	442.4222	417.8646	389.785	362.2007	323.3441	296.602	263.7356	225.3734	186.2314	149.8383	112.5708	79.1921	53.5754	33.9062	21.3189	10.9423	0	0	0	0	0	0	0	0	0	0	0	0	0	0	0	0	0	0	0	0	0	0	0
392	856.8497	729.1586	630.9941	574.7243	544.3327	513.1519	479.4007	468.0336	464.1743	463.6386	468.0107	485.9045	489.6623	481.8913	474.1168	443.9366	416.2651	386.8285	350.7793	315.5766	280.1265	241.6792	205.2701	167.5234	125.0225	90.2369	61.1533	40.6234	25.1654	14.5465	4.3163	0	0	0	0	0	0	0	0	0	0	0	0	0	0	0	0	0	0	0	0	0	0
394	891.3754	763.5643	685.3748	614.0968	553.8937	529.9709	515.9826	489.2431	477.4817	477.427	489.0509	507.1853	510.1165	509.5819	490.9126	469.0311	441.7817	414.5133	378.7779	334.297	299.4216	263.9043	226.5478	184.9812	144.4316	107.0008	71.9622	47.2178	28.7698	18.1532	8.5771	0	0	0	0	0	0	0	0	0	0	0	0	0	0	0	0	0	0	0	0	0	0
396	901.9936	810.6707	682.2104	636.6414	595.7385	558.5029	536.7838	517.5211	509.9517	502.8144	505.6966	523.7875	540.0193	536.2366	517.9011	491.4227	466.0273	440.1895	402.9823	363.6387	322.0708	286.2888	246.951	202.5255	159.3944	122.4434	84.5352	56.1843	33.6537	21.7454	12.8023	2.8695	0	0	0	0	0	0	0	0	0	0	0	0	0	0	0	0	0	0	0	0	0
398	936.4627	823.5609	730.8162	669.2457	631.4204	582.8587	550.9328	530.995	534.4105	519.7161	527.5	550.3328	567.4576	559.2748	551.9857	518.7814	501.1461	467.3043	430.0808	391.1498	345.043	307.9298	267.5759	220.2423	178.2174	135.9485	98.0767	64.7558	43.8431	25.3405	15.1785	5.7193	0	0	0	0	0	0	0	0	0	0	0	0	0	0	0	0	0	0	0	0	0
400	1021.8624	860.3081	762.7986	708.7843	650.2819	610.3618	578.9579	556.5148	552.1014	536.9298	553.6077	577.4469	583.2302	588.8282	571.7528	553.553	524.5312	494.3235	458.0621	414.394	367.8733	328.9302	285.4848	238.9118	196.9224	151.4119	112.176	74.7349	50.9453	29.8211	17.5379	8.5493	0	0	0	0	0	0	0	0	0	0	0	0	0	0	0	0	0	0	0	0	0
402	1065.7954	897.9348	786.4794	734.6893	685.5393	655.1012	607.7161	594.9944	564.5194	565.7847	569.9711	592.5157	616.7142	613.2461	599.8176	578.6072	555.1584	519.2167	481.9449	442.9484	402.4346	349.1947	302.7548	259.1436	215.1379	171.7085	128.2265	85.1935	58.1253	39.3513	19.8465	11.3597	3.3749	0	0	0	0	0	0	0	0	0	0	0	0	0	0	0	0	0	0	0	0
404	1137.629	931.1538	816.1454	752.7319	700.7585	677.0316	632.2399	592.9405	594.2189	581.9685	597.5363	612.2731	634.9309	635.6796	632.3425	604.3194	579.9532	553.3195	516.7883	474.0446	425.9176	369.2491	322.0112	279.1706	233.1679	186.3616	141.0899	101.1349	67.8081	45.8308	26.2383	14.1598	6.7148	0	0	0	0	0	0	0	0	0	0	0	0	0	0	0	0	0	0	0	0
406	1168.5539	972.1953	856.9204	775.8526	739.8037	699.5255	660.2173	623.0854	613.1339	605.6802	616.6997	635.0809	652.7705	661.0934	655.8787	636.6912	609.3134	576.9777	539.7734	501.6487	455.3314	389.8259	342.7897	297.5998	250.3148	201.2381	154.9122	111.8345	75.4891	54.1464	31.5548	16.9617	10.0384	1.9716	0	0	0	0	0	0	0	0	0	0	0	0	0	0	0	0	0	0	0
408	1179.6492	1016.3632	899.1525	820.3062	785.1007	742.1114	685.4753	649.4421	639.451	621.9346	631.5514	667.242	674.8511	689.5863	681.0255	666.1032	633.8961	604.1937	574.0891	531.0154	480.0331	417.3154	364.1255	316.5077	265.5204	216.4254	168.7091	125.5353	87.1851	61.0515	40.9561	19.7812	11.2549	3.9372	0	0	0	0	0	0	0	0	0	0	0	0	0	0	0	0	0	0	0
410	1203.2969	1034.2542	924.1447	856.5343	818.7144	758.4685	716.9725	678.0607	664.6259	665.2436	664.4848	675.4641	702.7443	711.5895	702.565	688.3498	667.383	636.6633	601.2972	550.9795	510.0268	450.8927	385.416	333.0035	280.6887	234.2816	185.2777	140.2549	99.3745	68.4723	47.3328	27.5395	12.4675	5.8966	0	0	0	0	0	0	0	0	0	0	0	0	0	0	0	0	0	0	0
412	1257.0066	1075.6192	960.3998	899.4628	832.0783	788.9753	741.1283	699.7995	672.0706	664.4102	680.469	707.524	722.0242	731.6728	733.5036	723.0839	687.8242	664.99	632.2718	591.8407	534.2868	481.7438	406.692	351.0639	301.2815	254.8193	201.8213	155.4499	110.5092	78.8889	53.9761	35.3613	13.6773	8.9107	3.5545	0	0	0	0	0	0	0	0	0	0	0	0	0	0	0	0	0	0
414	1276.5602	1077.1038	998.3083	921.3902	866.9484	810.5313	772.1761	711.0446	694.1034	680.3393	694.5083	715.3905	746.344	752.0722	753.4067	739.5496	720.5759	695.8418	659.9391	609.3843	560.7827	503.2785	434.436	371.8449	321.8327	271.263	218.3281	165.7245	124.6707	86.7549	63.4049	41.5779	23.888	12.9748	7.0988	0	0	0	0	0	0	0	0	0	0	0	0	0	0	0	0	0	0
416	1361.8482	1149.8753	1005.5844	925.8027	908.481	831.3848	780.9481	734.6779	720.8446	702.0935	713.3316	731.2037	759.7847	773.2237	777.79	770.1457	753.0403	720.611	685.8737	645.6616	590.6712	529.079	466.5714	393.4829	343.1262	288.3268	235.3342	182.7308	137.1643	99.1575	70.7143	47.7164	31.5261	17.0659	10.6571	2.6349	0	0	0	0	0	0	0	0	0	0	0	0	0	0	0	0	0
418	1348.8008	1155.3918	1054.9594	981.2216	931.8338	849.2617	810.3523	762.0458	731.2282	725.7666	717.3768	752.8898	781.2245	793.9804	804.712	797.2963	774.5805	745.9703	715.1171	674.0616	618.4869	555.0348	482.4125	416.1259	361.2055	306.1271	253.8779	198.7989	149.9131	112.0386	76.1227	56.2937	38.255	21.2118	13.2509	5.286	0	0	0	0	0	0	0	0	0	0	0	0	0	0	0	0	0
420	1425.4982	1210.9571	1116.5413	1005.1737	951.844	878.6311	836.3245	787.9181	756.7368	740.7631	744.5315	766.1635	798.0519	805.2567	824.4319	821.4184	805.2809	779.5055	748.8773	697.4369	646.1033	578.6993	515.0919	438.9251	380.3377	325.9002	272.1358	214.9738	163.3583	123.7435	88.4245	61.7875	45.439	27.3863	15.8604	7.9532	0	0	0	0	0	0	0	0	0	0	0	0	0	0	0	0	0
422	1468.0971	1230.6202	1121.2299	1055.0381	995.712	921.9256	861.299	810.5225	776.1607	754.4179	763.2078	788.3066	805.9048	833.6062	844.8472	847.0009	838.9063	810.6978	779.509	727.2143	672.661	606.5899	538.6982	466.7643	400.6324	345.8929	287.9015	231.3108	174.8861	132.4518	99.2375	71.548	53.4732	35.2005	18.49	11.1102	3.6677	0	0	0	0	0	0	0	0	0	0	0	0	0	0	0	0
424	1439.4019	1291.8963	1126.8566	1069.2301	1024.6395	945.5091	882.9673	825.318	786.3811	765.5318	782.5377	805.8653	830.1399	859.3454	863.4218	866.2374	857.4192	831.0064	796.1389	749.2081	700.3512	632.2785	553.0308	489.9066	421.0719	363.3287	303.7763	247.7627	189.4528	145.3992	107.0164	76.585	58.9873	39.6184	24.4976	14.7605	7.3596	0	0	0	0	0	0	0	0	0	0	0	0	0	0	0	0
426	1433.4682	1337.3148	1183.9428	1076.2582	1050.2274	960.6248	906.6774	844.0625	802.9235	785.9177	791.4099	825.6437	849.5249	864.001	883.9209	885.6724	883.0856	863.9817	824.6884	784.681	724.4362	657.0403	577.2233	507.7162	442.3768	380.1466	321.0302	263.0012	204.4517	159.4222	118.7365	87.947	64.593	47.9623	30.2322	18.4642	11.0937	3.471	0	0	0	0	0	0	0	0	0	0	0	0	0	0	0
428	1502.4439	1335.87	1205.4334	1114.722	1069.8203	995.9953	923.054	865.4282	825.2111	811.0171	806.988	831.6297	860.7527	885.1169	900.0619	905.6767	903.7931	891.7239	861.099	809.0425	750.2134	683.0643	604.7353	533.9684	461.835	397.7658	338.9973	275.2956	219.9519	169.1001	129.9796	98.2596	73.9159	54.4581	37.9384	22.239	15.5577	6.9871	0	0	0	0	0	0	0	0	0	0	0	0	0	0	0
430	1523.643	1346.0661	1225.5973	1162.5787	1074.2909	1020.3776	947.5055	882.9701	844.248	822.0526	826.8195	842.7721	875.5666	900.841	914.7887	936.4112	927.1858	910.8835	883.0142	835.6014	770.8827	701.3319	627.4545	558.2	483.8078	415.595	353.6201	287.7332	235.6458	183.6665	139.7211	107.2174	81.2887	59.8061	43.5358	26.6953	20.0787	10.5483	0	0	0	0	0	0	0	0	0	0	0	0	0	0	0
