Description	PHS-30 (clean blank)																																																				
EEM type	"Dilution- & Scatter-corrected, Calibrated Data (ppb QSE)"																																																				
Scan date	1/19/2012 15:34																																																				
Excitation	240-500nm by 5nm																																																				
Emission	290-600nm by 2nm																																																				
Calibration	Michael_Fluoromax4_April08 (07-Apr-2008)																																																				
Slit settings	"5nm Excitation, 5nm Emission"																																																				
Dilution	40																																																				
Row 1	Excitation(nm)																																																				
Col 1	Emission(nm)																																																				
Data	Fluorescence(ppb QSE)																																																				
																																																					
	240	245	250	255	260	265	270	275	280	285	290	295	300	305	310	315	320	325	330	335	340	345	350	355	360	365	370	375	380	385	390	395	400	405	410	415	420	425	430	435	440	445	450	455	460	465	470	475	480	485	490	495	500
290	-0.0001	-0.0001	-0.0001	-0.0001	-0.0001	0	0	0	0	0	0	0	0	0	0	0	0	0	0	0	0	0	0	0	0	0	0	0	0	0	0	0	0	0	0	0	0	0	0	0	0	0	0	0	0	0	0	0	0	0	0	0	0
292	-0.0001	-0.0001	-0.0001	-0.0001	-0.0001	0	0	0.6005	0	0	0	0	0	0	0	0	0	0	0	0	0	0	0	0	0	0	0	0	0	0	0	0	0	0	0	0	0	0	0	0	0	0	0	0	0	0	0	0	0	0	0	0	0
294	-0.0001	-0.0001	-0.0001	-0.0001	-0.0001	0	0	1.1879	0	0	0	0	0	0	0	0	0	0	0	0	0	0	0	0	0	0	0	0	0	0	0	0	0	0	0	0	0	0	0	0	0	0	0	0	0	0	0	0	0	0	0	0	0
296	-0.0001	-0.0001	-0.0001	-0.0001	-0.0001	0	1.8057	1.7599	0	0	0	0	0	0	0	0	0	0	0	0	0	0	0	0	0	0	0	0	0	0	0	0	0	0	0	0	0	0	0	0	0	0	0	0	0	0	0	0	0	0	0	0	0
298	-0.0001	-0.0001	-0.0001	-0.0001	0	0	3.5614	2.3139	2.1753	0	0	0	0	0	0	0	0	0	0	0	0	0	0	0	0	0	0	0	0	0	0	0	0	0	0	0	0	0	0	0	0	0	0	0	0	0	0	0	0	0	0	0	0
300	-0.0001	-0.0001	-0.0001	-0.0001	0	1.8588	4.6818	2.8517	4.2896	0	0	0	0	0	0	0	0	0	0	0	0	0	0	0	0	0	0	0	0	0	0	0	0	0	0	0	0	0	0	0	0	0	0	0	0	0	0	0	0	0	0	0	0
302	-0.0001	-0.0001	-0.0001	-0.0001	0	3.7239	5.2756	8.0784	6.4452	0	0	0	0	0	0	0	0	0	0	0	0	0	0	0	0	0	0	0	0	0	0	0	0	0	0	0	0	0	0	0	0	0	0	0	0	0	0	0	0	0	0	0	0
304	-0.0001	-0.0001	-0.0001	-0.0001	0	5.5951	5.8712	13.3236	8.608	5.1728	0	0	0	0	0	0	0	0	0	0	0	0	0	0	0	0	0	0	0	0	0	0	0	0	0	0	0	0	0	0	0	0	0	0	0	0	0	0	0	0	0	0	0
306	-0.0001	-0.0001	-0.0001	-0.0001	0	7.4687	11.2513	17.0223	10.7725	10.3587	0	0	0	0	0	0	0	0	0	0	0	0	0	0	0	0	0	0	0	0	0	0	0	0	0	0	0	0	0	0	0	0	0	0	0	0	0	0	0	0	0	0	0
308	-0.0001	-0.0001	-0.0001	-0.0001	0	9.342	16.6368	19.1628	21.6526	15.5499	0	0	0	0	0	0	0	0	0	0	0	0	0	0	0	0	0	0	0	0	0	0	0	0	0	0	0	0	0	0	0	0	0	0	0	0	0	0	0	0	0	0	0
310	-0.0001	-0.0001	-0.0001	-0.0001	0	16.4074	22.0305	21.3061	32.5534	20.749	7.4757	0	0	0	0	0	0	0	0	0	0	0	0	0	0	0	0	0	0	0	0	0	0	0	0	0	0	0	0	0	0	0	0	0	0	0	0	0	0	0	0	0	0
312	-0.0001	-0.0001	-0.0001	-0.0001	0	19.108	27.2673	31.8823	40.3166	25.7997	14.8739	0	0	0	0	0	0	0	0	0	0	0	0	0	0	0	0	0	0	0	0	0	0	0	0	0	0	0	0	0	0	0	0	0	0	0	0	0	0	0	0	0	0
314	-0.0001	-0.0001	-0.0001	-0.0001	0	36.1697	32.4473	42.349	45.1156	36.6535	22.1944	0	0	0	0	0	0	0	0	0	0	0	0	0	0	0	0	0	0	0	0	0	0	0	0	0	0	0	0	0	0	0	0	0	0	0	0	0	0	0	0	0	0
316	-0.0001	-0.0001	-0.0001	-0.0001	0.4369	36.3008	52.9096	52.5312	49.6956	47.2371	29.3396	9.2356	0	0	0	0	0	0	0	0	0	0	0	0	0	0	0	0	0	0	0	0	0	0	0	0	0	0	0	0	0	0	0	0	0	0	0	0	0	0	0	0	0
318	-0.0001	-0.0001	-0.0001	-0.0001	11.1289	54.1954	63.6282	62.3232	59.6148	55.5264	36.2361	18.2516	0	0	0	0	0	0	0	0	0	0	0	0	0	0	0	0	0	0	0	0	0	0	0	0	0	0	0	0	0	0	0	0	0	0	0	0	0	0	0	0	0
320	9.7265	2.0181	-0.0001	-0.0001	24.8999	54.9041	72.5747	71.864	69.2806	61.7095	45.434	27.0476	5.1145	0	0	0	0	0	0	0	0	0	0	0	0	0	0	0	0	0	0	0	0	0	0	0	0	0	0	0	0	0	0	0	0	0	0	0	0	0	0	0	0
322	29.7182	-0.0001	-0.0001	17.3332	32.6171	58.7717	77.4737	83.4919	78.3273	67.4093	54.144	35.4582	15.9886	0	0	0	0	0	0	0	0	0	0	0	0	0	0	0	0	0	0	0	0	0	0	0	0	0	0	0	0	0	0	0	0	0	0	0	0	0	0	0	0
324	36.9208	16.5888	1.9045	22.0659	43.3512	70.8569	78.5056	87.0359	87.024	75.1714	62.0389	43.5653	26.4897	6.8429	0	0	0	0	0	0	0	0	0	0	0	0	0	0	0	0	0	0	0	0	0	0	0	0	0	0	0	0	0	0	0	0	0	0	0	0	0	0	0
326	83.1627	25.5836	16.4387	20.4258	52.96	64.5396	89.1748	100.7455	95.3278	82.585	69.1127	54.8801	36.6008	14.2608	0	0	0	0	0	0	0	0	0	0	0	0	0	0	0	0	0	0	0	0	0	0	0	0	0	0	0	0	0	0	0	0	0	0	0	0	0	0	0
328	72.6567	16.1842	26.063	25.6229	41.7686	75.8783	85.4137	96.2188	96.6224	89.6381	75.8532	65.7271	46.3072	23.7496	0.377	0	0	0	0	0	0	0	0	0	0	0	0	0	0	0	0	0	0	0	0	0	0	0	0	0	0	0	0	0	0	0	0	0	0	0	0	0	0
330	44.4349	51.6187	33.0734	29.6535	57.7032	74.9018	89.4382	111.6967	103.9831	96.3627	85.5435	75.2701	55.6196	32.8686	10.034	0	0	0	0	0	0	0	0	0	0	0	0	0	0	0	0	0	0	0	0	0	0	0	0	0	0	0	0	0	0	0	0	0	0	0	0	0	0
332	91.1059	55.8099	41.8111	47.452	59.598	84.5765	98.3795	107.2544	115.67	101.6557	93.7849	82.6604	60.9178	41.1715	24.6464	0	0	0	0	0	0	0	0	0	0	0	0	0	0	0	0	0	0	0	0	0	0	0	0	0	0	0	0	0	0	0	0	0	0	0	0	0	0
334	70.4497	69.9214	53.665	43.8182	63.3573	90.9281	93.3212	109.0897	116.9866	117.3557	101.3584	89.4543	65.7847	48.9017	31.3276	10.5088	0	0	0	0	0	0	0	0	0	0	0	0	0	0	0	0	0	0	0	0	0	0	0	0	0	0	0	0	0	0	0	0	0	0	0	0	0
336	99.0982	75.5309	44.3351	54.5574	64.9322	87.9942	98.1265	106.7606	119.6107	122.2647	108.3736	93.0647	71.3621	56.1153	37.5726	17.8075	0	0	0	0	0	0	0	0	0	0	0	0	0	0	0	0	0	0	0	0	0	0	0	0	0	0	0	0	0	0	0	0	0	0	0	0	0
338	135.9988	83.5691	53.8572	48.3898	69.5524	93.8859	100.3939	109.2952	119.4434	121.6726	114.8606	96.3673	77.5711	62.5878	43.4029	22.2012	0	0	0	0	0	0	0	0	0	0	0	0	0	0	0	0	0	0	0	0	0	0	0	0	0	0	0	0	0	0	0	0	0	0	0	0	0
340	106.5142	84.5997	62.9957	60.8764	69.4716	94.9723	100.0502	109.7534	114.2216	120.0053	117.9752	99.2736	83.2427	68.5366	48.7871	27.1594	0	0	0	0	0	0	0	0	0	0	0	0	0	0	0	0	0	0	0	0	0	0	0	0	0	0	0	0	0	0	0	0	0	0	0	0	0
342	145.7857	93.5605	72.5615	71.337	76.3062	96.2339	104.5521	111.8953	118.2955	118.6694	123.8148	102.3402	88.6246	73.7806	54.0182	31.9171	1.7431	0	0	0	0	0	0	0	0	0	0	0	0	0	0	0	0	0	0	0	0	0	0	0	0	0	0	0	0	0	0	0	0	0	0	0	0
344	131.2172	107.7589	64.9205	66.127	75.7752	93.7601	106.0349	107.6959	117.2037	121.0404	117.5695	105.0735	93.5677	78.0489	59.5631	36.3609	10.2971	0	0	0	0	0	0	0	0	0	0	0	0	0	0	0	0	0	0	0	0	0	0	0	0	0	0	0	0	0	0	0	0	0	0	0	0
346	128.2874	93.0828	82.0481	71.5292	78.6089	92.578	100.0133	110.1635	119.1196	121.5194	121.2947	108.0886	98.3298	82.1582	64.8626	40.5969	16.2565	0	0	0	0	0	0	0	0	0	0	0	0	0	0	0	0	0	0	0	0	0	0	0	0	0	0	0	0	0	0	0	0	0	0	0	0
348	153.1817	109.2006	78.6293	79.7435	83.3076	99.0438	100.3656	108.3021	112.2515	119.3082	126.1649	114.7673	102.9681	86.8094	69.139	44.666	21.9324	2.0425	0	0	0	0	0	0	0	0	0	0	0	0	0	0	0	0	0	0	0	0	0	0	0	0	0	0	0	0	0	0	0	0	0	0	0
350	154.4664	112.9741	85.2155	79.7631	81.778	105.0031	108.1507	107.7729	116.6304	121.162	124.7294	118.0924	107.243	91.1175	72.3031	49.4501	27.2982	8.0769	0	0	0	0	0	0	0	0	0	0	0	0	0	0	0	0	0	0	0	0	0	0	0	0	0	0	0	0	0	0	0	0	0	0	0
352	143.309	125.099	104.6096	72.9146	87.6989	96.441	109.6667	117.0819	117.201	123.939	127.9984	124.5921	114.5796	95.1018	75.2229	53.9343	32.36	10.782	2.6307	0	0	0	0	0	0	0	0	0	0	0	0	0	0	0	0	0	0	0	0	0	0	0	0	0	0	0	0	0	0	0	0	0	0
354	153.807	147.9959	104.2055	94.8769	95.6331	103.0298	110.8647	115.3455	120.3245	122.7735	132.5592	124.3593	120.7737	98.745	78.8066	58.1095	37.2637	19.7351	9.3053	0	0	0	0	0	0	0	0	0	0	0	0	0	0	0	0	0	0	0	0	0	0	0	0	0	0	0	0	0	0	0	0	0	0
356	164.5866	135.9642	119.2918	98.6733	102.9193	106.9426	113.673	118.1965	118.2559	127.1655	126.4334	130.6809	121.2118	102.3987	82.5107	62.4825	43.1965	28.2804	15.1054	3.0329	0	0	0	0	0	0	0	0	0	0	0	0	0	0	0	0	0	0	0	0	0	0	0	0	0	0	0	0	0	0	0	0	0
358	163.2783	139.3535	111.9567	98.7678	99.354	111.5027	114.1556	114.2031	121.5332	126.2314	127.8165	130.4673	126.3369	107.4337	86.3823	66.8037	51.0301	36.5099	21.8925	11.5544	2.6631	0	0	0	0	0	0	0	0	0	0	0	0	0	0	0	0	0	0	0	0	0	0	0	0	0	0	0	0	0	0	0	0
360	177.9429	168.2202	113.333	107.4673	109.2777	102.3219	118.3195	116.5638	126.4858	127.0267	129.1925	131.3335	128.8517	111.3763	90.0078	72.9004	58.4841	44.357	30.9146	20.4866	6.5541	0	0	0	0	0	0	0	0	0	0	0	0	0	0	0	0	0	0	0	0	0	0	0	0	0	0	0	0	0	0	0	0
362	193.7386	158.401	133.3657	113.6657	106.7475	120.649	117.1955	115.3903	124.248	127.9027	128.1581	133.5957	130.0202	118.7768	94.0473	80.2129	66.0877	52.42	39.7956	27.5172	13.5445	1.3189	0	0	0	0	0	0	0	0	0	0	0	0	0	0	0	0	0	0	0	0	0	0	0	0	0	0	0	0	0	0	0
364	202.4157	167.7107	134.7261	127.4062	121.3593	122.2368	126.613	125.0928	130.4258	133.2392	136.6876	136.5182	133.5121	122.366	106.4825	87.2632	73.4273	60.6711	48.3872	36.3288	19.5863	9.7859	0	0	0	0	0	0	0	0	0	0	0	0	0	0	0	0	0	0	0	0	0	0	0	0	0	0	0	0	0	0	0
366	211.1162	173.3638	154.1441	126.3038	131.4913	125.7139	126.3721	130.9618	133.9739	136.9017	142.0035	140.088	134.4881	131.3588	113.676	94.129	81.0214	68.6934	56.736	44.0029	25.8128	12.9965	3.8598	0	0	0	0	0	0	0	0	0	0	0	0	0	0	0	0	0	0	0	0	0	0	0	0	0	0	0	0	0	0
368	215.7503	191.638	166.3919	146.1155	137.4962	131.9764	139.8825	135.6065	141.7523	142.3381	144.4775	143.8267	144.2524	135.3488	122.6451	100.8303	88.6481	76.691	64.6009	51.4706	37.2148	19.2732	10.4613	0	0	0	0	0	0	0	0	0	0	0	0	0	0	0	0	0	0	0	0	0	0	0	0	0	0	0	0	0	0
370	215.1115	196.1194	157.9492	149.1271	151.0283	143.8432	136.4025	138.4062	141.6678	145.9193	152.3836	149.6599	149.1349	141.9419	131.0058	115.3487	96.018	84.4265	71.6937	58.7021	45.6412	28.5879	15.0769	0	0	0	0	0	0	0	0	0	0	0	0	0	0	0	0	0	0	0	0	0	0	0	0	0	0	0	0	0	0
372	247.8478	216.3233	187.0686	158.0682	160.7484	151.94	149.4062	148.9994	147.7107	151.1324	152.8206	155.4237	157.3315	152.4525	140.2593	124.2396	103.6613	91.8557	78.9518	67.9236	54.7021	36.014	20.8691	8.7226	0	0	0	0	0	0	0	0	0	0	0	0	0	0	0	0	0	0	0	0	0	0	0	0	0	0	0	0	0
374	266.6099	226.9353	203.4402	179.0856	159.814	162.3536	155.6256	157.7586	161.4603	157.2001	160.7923	159.5361	159.6137	160.6423	147.3416	134.5967	111.1354	100.7597	89.821	78.8248	63.5771	45.5907	25.3506	14.8807	0	0	0	0	0	0	0	0	0	0	0	0	0	0	0	0	0	0	0	0	0	0	0	0	0	0	0	0	0
376	276.8366	252.1507	207.8499	181.1134	182.6578	173.7391	162.3655	160.0221	161.7666	163.7092	171.9412	173.1353	175.1563	163.9531	157.3942	141.3722	126.4729	111.248	100.3739	88.6256	72.203	54.0633	36.9674	18.5815	5.7959	0	0	0	0	0	0	0	0	0	0	0	0	0	0	0	0	0	0	0	0	0	0	0	0	0	0	0	0
378	291.1689	274.7662	223.6297	202.177	188.9483	181.4426	172.8969	173.0431	167.8146	170.9415	176.7588	182.5057	179.731	175.2704	161.3972	154.0622	136.0583	121.3783	110.5798	98.1087	80.5553	63.6926	43.2347	25.0055	14.1243	0	0	0	0	0	0	0	0	0	0	0	0	0	0	0	0	0	0	0	0	0	0	0	0	0	0	0	0
380	321.0312	286.287	244.1339	222.6547	209.7348	198.0216	184.5009	179.3968	184.7612	179.1185	187.2842	188.3649	190.6693	184.019	176.5876	167.2995	147.1426	131.2366	119.7328	106.7412	88.6881	73.0782	53.7829	32.8767	19.5719	4.8448	0	0	0	0	0	0	0	0	0	0	0	0	0	0	0	0	0	0	0	0	0	0	0	0	0	0	0
382	338.6706	283.2637	256.5699	235.3343	213.6119	204.1297	186.4775	188.9699	191.7237	185.5569	194.5887	194.8759	197.3324	195.5091	186.6262	177.9594	158.9938	141.4663	129.2207	115.0673	100.0547	82.5949	62.4262	42.0989	25.7235	12.9867	0	0	0	0	0	0	0	0	0	0	0	0	0	0	0	0	0	0	0	0	0	0	0	0	0	0	0
384	353.9479	318.6561	263.9405	260.624	228.2613	215.2882	208.4901	194.8725	197.2955	193.9944	202.2831	206.0428	205.2018	202.8231	198.5061	185.7372	172.5088	155.666	138.5506	123.254	111.24	91.9589	71.2623	50.2102	32.6912	18.7126	2.6461	0	0	0	0	0	0	0	0	0	0	0	0	0	0	0	0	0	0	0	0	0	0	0	0	0	0
386	357.8238	365.0894	289.7134	271.4666	239.1121	222.4335	210.7428	206.8837	210.5907	204.8798	214.279	217.0505	214.0076	213.5493	207.4623	199.2835	185.5937	168.0047	148.2749	134.809	121.8145	101.5479	80.2542	60.1895	40.4749	25.8794	10.8005	0	0	0	0	0	0	0	0	0	0	0	0	0	0	0	0	0	0	0	0	0	0	0	0	0	0
388	384.8781	353.2897	288.4905	284.9568	262.7795	234.8419	225.8439	215.8445	212.1868	213.0385	213.9238	217.3281	223.178	222.5839	219.9657	212.4871	193.4945	181.0704	158.5092	146.8178	131.9111	111.0619	89.5056	69.987	48.6941	33.0326	15.7403	0	0	0	0	0	0	0	0	0	0	0	0	0	0	0	0	0	0	0	0	0	0	0	0	0	0
390	380.7464	356.9158	329.1234	292.066	272.7752	253.0845	232.9956	228.4477	217.4192	227.7889	228.5872	227.5455	241.8064	233.6055	229.622	221.1089	206.5396	195.2071	176.351	158.8233	142.0038	120.5716	98.7528	78.4327	60.5953	39.0409	23.3142	7.8882	0	0	0	0	0	0	0	0	0	0	0	0	0	0	0	0	0	0	0	0	0	0	0	0	0
392	433.3428	385.6078	352.9516	312.4686	290.0778	267.7104	250.2575	234.2133	232.6778	228.59	233.1744	239.9925	245.9278	246.7711	238.086	232.9487	221.8721	208.1943	189.1441	169.8022	150.765	129.2988	109.1194	89.1491	67.4095	46.0259	28.2193	14.9209	0	0.3926	0.4613	0	0	0	0	0	0	0	0	0	0	0	0	0	0	0	0	0	0	0	0	0	0
394	446.2571	401.6334	358.5368	322.0051	295.475	284.9183	260.9246	250.561	240.3271	237.5896	243.8523	248.3473	253.6551	256.9527	251.1997	242.7778	240.2367	216.7228	205.3945	180.632	161.2481	141.5273	121.2056	99.7263	78.6589	57.6034	36.8309	22.0403	5.4116	1.1701	0.9166	0	0	0	0	0	0	0	0	0	0	0	0	0	0	0	0	0	0	0	0	0	0
396	448.121	430.9791	378.4831	336.9184	313.6448	292.4164	268.5182	264.029	247.5269	247.8621	251.6068	258.586	265.1049	268.3725	259.4889	254.2973	242.1224	236.1627	220.4548	196.9003	173.6905	153.8329	133.5343	110.3351	87.6496	66.458	44.1118	28.3608	11.5606	1.9404	1.368	0	0	0	0	0	0	0	0	0	0	0	0	0	0	0	0	0	0	0	0	0	0
398	496.2555	442.1046	413.3779	344.6209	333.8936	310.4291	284.6469	268.9092	262.724	260.6799	262.1507	271.6803	277.3738	277.2584	277.566	278.6909	260.0799	250.8038	232.0626	212.6477	186.2998	166.476	145.9694	121.0271	98.4304	77.3365	53.0765	34.1808	20.4884	2.7071	0.9088	0	0	0	0	0	0	0	0	0	0	0	0	0	0	0	0	0	0	0	0	0	0
400	533.1487	492.3088	437.5558	379.8192	343.4645	319.0798	301.9631	285.2757	270.5813	271.0055	274.7601	281.372	288.8772	294.6371	288.1362	289.1205	275.194	259.9345	246.6252	229.9715	198.8264	179.1361	156.7774	131.9999	109.1407	87.7015	62.5203	40.3627	27.4023	9.6954	0.4528	0	0	0	0	0	0	0	0	0	0	0	0	0	0	0	0	0	0	0	0	0	0
402	527.7222	488.7848	434.2745	393.9688	378.9406	340.0656	315.8653	292.0683	285.859	279.5733	283.6724	289.5403	300.064	302.0908	305.7235	301.6011	291.3342	279.8573	261.301	247.201	217.1963	191.3836	167.2251	143.355	119.5744	96.2765	73.3892	51.3752	31.5429	18.6507	0	0.3367	0.3982	0	0	0	0	0	0	0	0	0	0	0	0	0	0	0	0	0	0	0	0
404	568.3981	524.0745	465.1154	423.1423	377.7456	364.7054	330.0039	309.6665	300.3451	294.6664	297.6685	304.8804	314.0543	316.5272	314.1243	314.7551	303.0036	299.0005	277.8727	260.7965	232.2185	203.5019	178.2749	154.5916	129.8991	105.9993	81.9524	58.9925	39.383	24.783	6.7373	1.0048	0.7921	0	0	0	0	0	0	0	0	0	0	0	0	0	0	0	0	0	0	0	0
406	596.0781	522.8568	476.022	433.6804	408.325	371.7998	340.4334	323.2452	309.0097	297.6395	310.0473	309.7825	323.2339	328.2158	327.9759	330.2532	316.4545	314.2922	294.408	274.0258	248.0758	215.8955	189.9174	165.1316	140.154	115.8365	91.3708	67.4204	44.6213	29.2662	13.2277	1.6689	1.1841	0	0	0	0	0	0	0	0	0	0	0	0	0	0	0	0	0	0	0	0
408	628.601	554.4884	486.8862	449.3137	421.5886	388.5657	362.7566	332.1148	320.0375	319.2956	318.4888	327.0136	336.1257	343.2416	341.7122	339.1108	335.8934	326.9858	312.7218	290.3929	265.9423	232.8176	201.8631	175.9321	150.1775	125.8456	102.2716	76.4394	53.9741	36.424	22.3685	2.3329	0.7881	0	0	0	0	0	0	0	0	0	0	0	0	0	0	0	0	0	0	0	0
410	627.1248	596.1142	505.8322	481.5894	440.8569	399.7611	386.4038	347.7352	328.9286	326.5902	328.2687	337.5073	347.7635	353.281	354.4208	353.4043	351.962	343.5442	324.1055	309.6988	281.0142	252.0293	213.7791	186.2522	160.1752	137.8165	112.4844	86.0392	62.2551	42.2883	28.6582	11.3435	0.3934	0	0	0	0	0	0	0	0	0	0	0	0	0	0	0	0	0	0	0	0
412	644.0506	612.6251	533.9802	505.8499	466.4403	415.247	397.8012	364.423	341.8526	338.39	337.3981	348.0734	359.9675	358.1474	372.141	371.8623	364.5937	356.7875	340.2587	324.1493	296.6484	272.005	225.6827	198.3582	174.1512	151.7552	122.6796	98.7066	72.0172	49.137	34.1119	18.7504	0	0.5421	0.6376	0	0	0	0	0	0	0	0	0	0	0	0	0	0	0	0	0	0
414	671.9851	629.0597	557.5807	498.9412	479.0739	434.2924	406.6685	379.7302	364.6289	342.7896	348.7496	359.7855	360.5623	369.849	380.1625	378.8689	374.926	370.2549	357.6824	335.7769	313.0542	285.9386	247.1558	212.4585	188.0967	161.883	132.85	106.1136	79.7927	57.491	39.595	25.4735	8.0203	1.6239	1.2733	0	0	0	0	0	0	0	0	0	0	0	0	0	0	0	0	0	0
416	683.71	633.5345	599.7988	540.4287	512.2097	453.3422	415.3249	383.7438	371.7322	365.9738	356.6658	369.7757	376.6712	389.7468	391.0693	395.9422	394.7372	386.2323	375.2828	354.1679	331.6883	298.5251	264.7141	227.0452	202.4732	172.3781	143.3216	114.4851	86.2658	65.0916	46.7941	30.2753	16.8561	2.7085	1.9113	0	0	0	0	0	0	0	0	0	0	0	0	0	0	0	0	0	0
418	697.8602	648.1052	582.8433	547.3398	516.7204	468.6493	441.0084	405.005	382.2378	370.6735	376.122	376.1232	383.5349	394.6063	404.8332	412.0679	403.919	401.0101	388.3978	370.8634	346.0954	316.7387	280.7114	242.2177	213.5571	183.3118	155.5318	125.9383	97.1283	72.6851	52.5977	37.3611	23.0724	3.8034	1.278	0	0	0	0	0	0	0	0	0	0	0	0	0	0	0	0	0	0
420	749.7955	668.3627	616.8059	561.5638	520.635	487.6522	454.0488	414.0516	402.745	379.8931	381.81	388.1708	398.2868	409.5358	413.3466	421.8048	424.0553	415.7435	408.4607	386.4327	359.5004	337.6929	297.378	257.4924	226.0913	197.059	168.5382	137.4667	109.1347	83.1714	59.8642	39.6293	28.2908	11.921	0.6409	0	0	0	0	0	0	0	0	0	0	0	0	0	0	0	0	0	0
422	753.5707	711.0037	629.9273	588.013	541.4709	514.3592	470.3713	429.5084	402.9587	393.8113	393.1027	397.0976	411.9041	417.6087	430.9961	438.5445	438.9563	430.1744	421.1586	403.4083	376.4024	344.4895	309.4716	276.8125	240.1502	210.95	180.3582	149.1061	117.3685	89.2673	68.6546	48.2956	34.6749	19.1514	0	0.9709	1.1377	0	0	0	0	0	0	0	0	0	0	0	0	0	0	0	0
424	731.7373	729.8715	658.3183	624.9278	569.3932	529.7901	483.6668	441.7016	421.1404	405.0897	405.3013	410.1749	419.7176	428.5823	440.2347	447.7885	449.2091	445.4198	440.0272	415.2465	394.0356	360.6341	327.5489	288.9087	254.3081	223.6166	192.26	160.8264	127.602	99.7203	75.1086	54.2909	39.8522	24.6288	9.0792	2.9224	2.2828	0	0	0	0	0	0	0	0	0	0	0	0	0	0	0	0
426	766.9141	728.3816	689.7514	627.441	576.7691	542.9484	494.3395	459.2316	434.3417	423.0107	406.3824	417.5228	430.1502	437.3607	449.5277	460.4038	460.0584	457.1532	448.1374	431.7931	405.198	375.2321	340.5455	307.1679	269.0018	236.0889	204.4728	171.8189	138.129	110.4642	83.7078	62.2491	43.1601	30.7913	15.6858	4.8945	3.4409	0.4079	0	0	0	0	0	0	0	0	0	0	0	0	0	0	0
428	761.4563	757.5888	707.5082	636.3751	610.1376	560.8438	510.0007	466.8944	444.7527	427.6038	431.8312	422.9641	428.3333	452.071	459.7699	469.3684	473.4323	476.5852	466.3892	445.0396	422.6179	391.992	352.9698	320.9487	285.0785	249.0819	217.1528	181.0188	148.9983	119.4867	93.9554	68.7523	50.9591	38.2071	21.2606	6.8965	3.2618	0.821	0	0	0	0	0	0	0	0	0	0	0	0	0	0	0
430	825.7215	749.8467	713.7954	666.9837	601.9861	568.8811	519.7116	487.9974	466.2885	435.3753	430.0803	440.8553	443.7758	451.3833	475.5608	480.9161	491.6468	487.0805	481.5285	464.1673	439.1057	404.0922	369.3252	333.5453	302.7685	262.2323	227.7826	190.3274	160.0026	128.8333	101.9698	77.928	58.6122	42.3506	28.1827	11.9518	3.0801	1.2393	0	0	0	0	0	0	0	0	0	0	0	0	0	0	0
432	821.1159	801.6061	738.8188	671.0349	634.164	583.7508	536.9749	504.7821	470.9604	451.8445	446.431	439.3086	456.3918	460.2994	482.949	492.509	497.0101	500.0944	496.7296	477.6749	449.6681	418.4633	384.3568	348.7314	313.1939	275.237	237.1665	201.4354	170.4434	138.1425	108.8689	85.5963	65.0133	47.3948	36.2805	20.0703	2.8928	2.6394	1.6283	0	0	0	0	0	0	0	0	0	0	0	0	0	0
434	848.4481	809.4408	767.0557	677.9106	646.7515	595.0843	558.2836	515.3167	477.6582	459.6993	461.2834	458.9124	463.7998	481.2898	487.1274	496.6091	506.1697	516.8587	505.9082	495.6412	470.9773	433.5924	400.0197	359.2448	327.236	289.8127	246.6415	212.6568	179.9644	147.5472	117.9304	93.0292	71.4468	54.3285	40.7067	26.7354	11.1553	5.0377	3.2738	0	0	0	0	0	0	0	0	0	0	0	0	0	0
436	884.1098	815.2434	754.5564	701.808	674.802	617.3222	580.6057	515.7793	491.8269	458.9188	466.6428	462.1388	468.4307	480.4237	496.6637	513.2373	522.8974	528.1428	516.4155	503.8449	480.9657	446.3348	409.9276	374.1522	340.01	301.7294	256.5379	223.2458	189.8244	157.2492	124.0452	100.2948	81.2646	60.0346	44.2208	32.8991	18.056	7.4705	4.9426	0.762	0	0	0	0	0	0	0	0	0	0	0	0	0
