Description	Scan series EEM_1.prn through EEM_53.prn																																																				
EEM type	"Dilution- & Scatter-corrected, Calibrated Data (ppb QSE)"																																																				
Scan date	3/5/2013 16:06																																																				
Excitation	240-500nm by 5nm																																																				
Emission	290-600nm by 2nm																																																				
Calibration	Michael_Fluoromax4_April08 (07-Apr-2008)																																																				
Slit settings	"5nm Excitation, 5nm Emission"																																																				
Dilution	29																																																				
Row 1	Excitation(nm)																																																				
Col 1	Emission(nm)																																																				
Data	Fluorescence(ppb QSE)																																																				
																																																					
	240	245	250	255	260	265	270	275	280	285	290	295	300	305	310	315	320	325	330	335	340	345	350	355	360	365	370	375	380	385	390	395	400	405	410	415	420	425	430	435	440	445	450	455	460	465	470	475	480	485	490	495	500
290	44.5311	40.1217	23.1286	22.1785	21.3167	20.4295	19.9936	20.1685	13.6131	6.9704	0	0	0	0	0	0	0	0	0	0	0	0	0	0	0	0	0	0	0	0	0	0	0	0	0	0	0	0	0	0	0	0	0	0	0	0	0	0	0	0	0	0	0
292	28.9695	25.6691	19.2123	29.809	28.3654	26.9312	26.8372	28.94	5.1557	2.2632	0	0	0	0	0	0	0	0	0	0	0	0	0	0	0	0	0	0	0	0	0	0	0	0	0	0	0	0	0	0	0	0	0	0	0	0	0	0	0	0	0	0	0
294	45.0725	42.1094	23.7807	37.2724	35.2592	34.7804	35.6428	37.5215	21.7878	1.4922	0	0	0	0	0	0	0	0	0	0	0	0	0	0	0	0	0	0	0	0	0	0	0	0	0	0	0	0	0	0	0	0	0	0	0	0	0	0	0	0	0	0	0
296	62.9713	20.6492	35.9287	44.5082	44.3344	43.8714	49.1305	45.8508	37.1198	0.7369	0	0	0	0	0	0	0	0	0	0	0	0	0	0	0	0	0	0	0	0	0	0	0	0	0	0	0	0	0	0	0	0	0	0	0	0	0	0	0	0	0	0	0
298	105.7517	55.7921	54.4538	60.817	53.8927	52.6584	62.1993	53.8915	40.8499	0	0	0	0	0	0	0	0	0	0	0	0	0	0	0	0	0	0	0	0	0	0	0	0	0	0	0	0	0	0	0	0	0	0	0	0	0	0	0	0	0	0	0	0
300	70.6561	67.8764	64.0521	66.1244	63.1721	66.2769	72.504	61.6932	44.4616	0.2584	0	0	0	0	0	0	0	0	0	0	0	0	0	0	0	0	0	0	0	0	0	0	0	0	0	0	0	0	0	0	0	0	0	0	0	0	0	0	0	0	0	0	0
302	102.2264	67.4371	60.5442	71.9987	73.3396	80.7877	81.4363	73.5179	48.7296	11.8911	0	0	0	0	0	0	0	0	0	0	0	0	0	0	0	0	0	0	0	0	0	0	0	0	0	0	0	0	0	0	0	0	0	0	0	0	0	0	0	0	0	0	0
304	107.6953	91.798	64.1848	72.9739	72.3807	95.3639	90.404	85.3929	53.0127	20.1737	0	0	0	0	0	0	0	0	0	0	0	0	0	0	0	0	0	0	0	0	0	0	0	0	0	0	0	0	0	0	0	0	0	0	0	0	0	0	0	0	0	0	0
306	102.4453	86.2221	79.7832	80.1034	88.644	109.9507	102.599	93.4628	57.2821	28.4747	0	0	0	0	0	0	0	0	0	0	0	0	0	0	0	0	0	0	0	0	0	0	0	0	0	0	0	0	0	0	0	0	0	0	0	0	0	0	0	0	0	0	0
308	125.6745	110.2003	58.3085	85.053	91.2084	124.5262	114.7766	97.6947	68.0292	36.7817	0	0	0	0	0	0	0	0	0	0	0	0	0	0	0	0	0	0	0	0	0	0	0	0	0	0	0	0	0	0	0	0	0	0	0	0	0	0	0	0	0	0	0
310	134.4988	96.9789	92.2237	93.4892	106.4774	127.2263	126.9822	101.9332	78.7995	45.1048	9.4393	0	0	0	0	0	0	0	0	0	0	0	0	0	0	0	0	0	0	0	0	0	0	0	0	0	0	0	0	0	0	0	0	0	0	0	0	0	0	0	0	0	0
312	126.3453	134.1357	109.226	89.0788	111.702	130.5447	138.3727	111.9465	87.756	53.1217	18.784	0	0	0	0	0	0	0	0	0	0	0	0	0	0	0	0	0	0	0	0	0	0	0	0	0	0	0	0	0	0	0	0	0	0	0	0	0	0	0	0	0	0
314	155.3503	115.6323	100.7963	102.5663	109.7316	134.3065	149.643	121.8534	95.3277	58.5759	28.034	0	0	0	0	0	0	0	0	0	0	0	0	0	0	0	0	0	0	0	0	0	0	0	0	0	0	0	0	0	0	0	0	0	0	0	0	0	0	0	0	0	0
316	125.8035	135.9417	143.7486	133.3766	123.3356	127.6411	156.1939	131.2154	102.4743	63.7574	37.0656	7.7066	0	0	0	0	0	0	0	0	0	0	0	0	0	0	0	0	0	0	0	0	0	0	0	0	0	0	0	0	0	0	0	0	0	0	0	0	0	0	0	0	0
318	151.1717	139.1697	139.0194	125.0451	124.592	141.6549	154.2303	139.9269	106.736	70.1938	45.7859	15.2306	0	0	0	0	0	0	0	0	0	0	0	0	0	0	0	0	0	0	0	0	0	0	0	0	0	0	0	0	0	0	0	0	0	0	0	0	0	0	0	0	0
320	178.4398	132.9307	123.6966	123.9884	125.5143	142.3645	152.8703	148.3905	110.8633	78.0221	48.7308	22.5717	0	0	0	0	0	0	0	0	0	0	0	0	0	0	0	0	0	0	0	0	0	0	0	0	0	0	0	0	0	0	0	0	0	0	0	0	0	0	0	0	0
322	175.947	141.7697	132.7904	137.0676	125.1744	125.947	156.0915	150.9839	114.3213	85.2407	51.3492	29.5917	6.963	0	0	0	0	0	0	0	0	0	0	0	0	0	0	0	0	0	0	0	0	0	0	0	0	0	0	0	0	0	0	0	0	0	0	0	0	0	0	0	0
324	153.6377	177.2716	156.8495	155.376	129.3729	139.1205	140.7205	147.5958	117.5944	87.0127	55.6378	36.3589	13.6884	0	0	0	0	0	0	0	0	0	0	0	0	0	0	0	0	0	0	0	0	0	0	0	0	0	0	0	0	0	0	0	0	0	0	0	0	0	0	0	0
326	189.6976	159.3854	148.9083	145.024	135.3539	143.2129	147.3152	141.3286	120.6287	88.6305	61.4764	41.095	20.167	0	0	0	0	0	0	0	0	0	0	0	0	0	0	0	0	0	0	0	0	0	0	0	0	0	0	0	0	0	0	0	0	0	0	0	0	0	0	0	0
328	208.9912	151.6317	145.6838	128.1002	147.6568	145.9097	150.8848	142.1665	130.0721	90.0897	67.0352	45.6136	26.3895	7.1671	0	0	0	0	0	0	0	0	0	0	0	0	0	0	0	0	0	0	0	0	0	0	0	0	0	0	0	0	0	0	0	0	0	0	0	0	0	0	0
330	178.6644	193.0719	157.7344	153.5183	145.0197	147.9856	153.5321	142.9565	127.5074	91.4285	70.7163	50.4948	32.3614	14.063	0	0	0	0	0	0	0	0	0	0	0	0	0	0	0	0	0	0	0	0	0	0	0	0	0	0	0	0	0	0	0	0	0	0	0	0	0	0	0
332	184.0791	167.3048	179.4099	149.8839	141.3482	139.5635	144.6321	143.9704	130.2165	91.6514	73.407	55.1085	39.2067	20.4656	0	0	0	0	0	0	0	0	0	0	0	0	0	0	0	0	0	0	0	0	0	0	0	0	0	0	0	0	0	0	0	0	0	0	0	0	0	0	0
334	213.2718	182.7017	166.4278	128.1362	145.6613	142.1842	136.2734	134.4534	132.9132	100.7803	75.7986	59.3431	45.5705	26.4479	7.712	0	0	0	0	0	0	0	0	0	0	0	0	0	0	0	0	0	0	0	0	0	0	0	0	0	0	0	0	0	0	0	0	0	0	0	0	0	0
336	186.5866	209.2765	175.7334	157.3407	139.6873	150.3255	137.4869	137.6542	129.3183	108.6799	77.9706	64.668	51.024	32.0418	14.9501	0	0	0	0	0	0	0	0	0	0	0	0	0	0	0	0	0	0	0	0	0	0	0	0	0	0	0	0	0	0	0	0	0	0	0	0	0	0
338	189.1044	176.1476	163.0106	157.6826	143.9862	142.9824	136.9405	133.856	129.047	110.511	79.9365	69.6088	55.6331	39.3365	21.7362	2.4078	0	0	0	0	0	0	0	0	0	0	0	0	0	0	0	0	0	0	0	0	0	0	0	0	0	0	0	0	0	0	0	0	0	0	0	0	0
340	192.2037	185.8798	165.7355	159.2384	147.6142	143.2838	140.2251	136.6556	124.7291	110.5327	88.091	74.1063	59.8471	46.1046	28.0618	12.4377	0	0	0	0	0	0	0	0	0	0	0	0	0	0	0	0	0	0	0	0	0	0	0	0	0	0	0	0	0	0	0	0	0	0	0	0	0
342	231.625	179.266	171.9421	165.0553	146.8097	145.3376	146.6387	138.8821	127.6679	114.8615	95.8258	78.5877	65.9559	52.1317	34.1114	21.9263	6.1243	0	0	0	0	0	0	0	0	0	0	0	0	0	0	0	0	0	0	0	0	0	0	0	0	0	0	0	0	0	0	0	0	0	0	0	0
344	229.0615	174.0156	177.4058	166.1633	156.0072	147.3738	141.9538	133.0741	131.3209	120.7112	99.3931	82.6961	71.623	57.2577	44.4691	30.86	14.36	2.2516	0	0	0	0	0	0	0	0	0	0	0	0	0	0	0	0	0	0	0	0	0	0	0	0	0	0	0	0	0	0	0	0	0	0	0
346	217.5851	200.7037	196.7514	161.994	158.053	144.7588	146.9614	140.1194	133.9257	124.3863	109.0299	88.1564	77.05	62.1593	54.311	39.3406	22.8934	8.2217	0	0	0	0	0	0	0	0	0	0	0	0	0	0	0	0	0	0	0	0	0	0	0	0	0	0	0	0	0	0	0	0	0	0	0
348	240.1466	213.1423	201.318	173.9614	167.7522	149.7097	151.133	144.7335	136.9426	128.5381	115.6759	97.2394	82.2946	71.3335	62.8638	47.4404	31.0235	17.1093	4.9084	0	0	0	0	0	0	0	0	0	0	0	0	0	0	0	0	0	0	0	0	0	0	0	0	0	0	0	0	0	0	0	0	0	0
350	243.0168	242.1147	199.3213	166.9273	158.2238	155.2323	152.8825	144.394	140.1857	128.0145	115.8331	106.9281	87.1731	79.9641	70.0768	54.7109	38.7127	22.6822	11.9099	1.9007	0	0	0	0	0	0	0	0	0	0	0	0	0	0	0	0	0	0	0	0	0	0	0	0	0	0	0	0	0	0	0	0	0
352	249.5222	227.1237	204.2661	177.2826	169.3466	158.2367	161.2651	151.2502	145.0505	138.0785	128.9194	110.008	102.2952	88.0678	76.8448	61.5513	45.9692	30.4013	19.7947	7.8946	0	0	0	0	0	0	0	0	0	0	0	0	0	0	0	0	0	0	0	0	0	0	0	0	0	0	0	0	0	0	0	0	0
354	252.5959	243.5618	208.5329	185.9548	176.0404	169.2113	166.329	154.0448	152.5335	141.4676	131.1888	122.2003	107.3164	95.6296	82.8063	67.9516	55.1166	41.6788	26.6546	13.6444	0.6536	0	0	0	0	0	0	0	0	0	0	0	0	0	0	0	0	0	0	0	0	0	0	0	0	0	0	0	0	0	0	0	0
356	260.3377	258.1095	227.6629	194.4939	185.1475	167.1715	168.2913	167.2209	155.7783	148.4596	141.7941	130.3131	117.8673	103.0025	90.9011	78.7185	66.5816	52.4802	35.7885	20.3562	8.8778	0	0	0	0	0	0	0	0	0	0	0	0	0	0	0	0	0	0	0	0	0	0	0	0	0	0	0	0	0	0	0	0
358	272.4031	261.4585	238.6043	199.1541	190.5146	179.4569	171.5079	171.7999	165.2395	152.0953	148.9173	140.6085	128.6051	114.0503	101.0688	89.1919	78.4538	62.9256	45.3593	30.4258	18.922	0	0	0	0	0	0	0	0	0	0	0	0	0	0	0	0	0	0	0	0	0	0	0	0	0	0	0	0	0	0	0	0
360	279.1238	279.1967	248.5536	227.0845	206.5956	190.3281	178.8095	174.5439	176.2925	163.4606	154.2549	147.4098	140.5895	126.5886	110.715	99.8855	89.756	72.874	56.9373	38.9199	21.8902	9.9955	0	0	0	0	0	0	0	0	0	0	0	0	0	0	0	0	0	0	0	0	0	0	0	0	0	0	0	0	0	0	0
362	339.8617	305.5879	260.7622	228.254	204.783	200.2311	191.3264	180.9324	182.8621	178.7985	167.105	160.8183	151.7862	140.4421	120.6873	111.1682	99.5228	84.1854	68.4448	46.1364	30.509	15.6952	0	0.51	0.5881	0	0	0	0	0	0	0	0	0	0	0	0	0	0	0	0	0	0	0	0	0	0	0	0	0	0	0	0
364	340.1041	293.1943	263.1977	251.5125	223.1281	210.1	205.207	196.9706	192.8594	189.9461	179.7723	174.1822	163.7381	151.4144	136.6868	122.0585	108.947	97.6378	79.5742	59.098	38.3425	22.3097	5.8063	1.506	1.1577	0	0	0	0	0	0	0	0	0	0	0	0	0	0	0	0	0	0	0	0	0	0	0	0	0	0	0	0
366	364.143	316.1685	295.3276	255.8693	234.9549	220.4338	212.8496	208.8976	208.3811	194.5119	188.5727	185.3722	177.6306	168.0653	153.5235	132.6653	120.6095	110.7258	90.3995	69.2098	47.4347	30.4079	15.6883	2.4721	1.7102	0	0	0	0	0	0	0	0	0	0	0	0	0	0	0	0	0	0	0	0	0	0	0	0	0	0	0	0
368	388.5746	332.0164	309.2771	283.2649	242.3062	235.7445	228.4626	219.3678	219.8264	212.5599	201.9167	195.072	196.5598	185.8652	168.2877	143.0186	133.2105	121.0486	100.6413	79.0579	56.0943	35.5659	21.4017	3.4106	1.1235	0	0	0	0	0	0	0	0	0	0	0	0	0	0	0	0	0	0	0	0	0	0	0	0	0	0	0	0
370	400.7484	359.3899	310.2436	271.3802	264.0548	252.0803	238.8928	232.0614	227.4368	218.2352	218.6189	215.8562	207.7859	196.6743	183.3137	161.254	145.4006	131.0278	109.9424	88.5935	67.1941	45.2363	29.191	11.5901	0.5534	0	0	0	0	0	0	0	0	0	0	0	0	0	0	0	0	0	0	0	0	0	0	0	0	0	0	0	0
372	419.2736	404.0175	331.3018	311.0608	276.9748	254.0492	242.1199	244.5098	239.2452	237.1965	230.0251	227.1876	228.8979	217.3208	198.8846	182.9641	157.9903	140.782	119.5401	102.3286	80.4051	53.9136	36.5817	21.2777	0	0.88	1.0284	0	0	0	0	0	0	0	0	0	0	0	0	0	0	0	0	0	0	0	0	0	0	0	0	0	0
374	458.202	438.1104	359.2568	328.9941	294.7601	275.9398	273.6754	268.1972	261.4559	249.7266	251.2674	242.9957	249.6241	233.7821	219.2014	198.1431	170.3118	154.0508	136.9409	119.7616	93.3525	65.1246	42.9346	26.4266	9.6097	2.6136	2.0363	0	0	0	0	0	0	0	0	0	0	0	0	0	0	0	0	0	0	0	0	0	0	0	0	0	0
376	476.9861	439.8869	381.8711	348.0729	319.9806	297.8895	292.0932	282.3359	277.0403	266.578	266.1825	261.1883	262.094	257.1557	236.1576	218.8937	191.3708	170.8821	153.8569	133.8237	105.9434	76.0255	50.684	33.5199	17.7656	4.3083	3.0209	0.34	0	0	0	0	0	0	0	0	0	0	0	0	0	0	0	0	0	0	0	0	0	0	0	0	0
378	505.8348	467.8392	404.8596	369.3202	340.5491	321.2107	304.9342	295.4362	291.5569	285.8611	284.949	285.7593	281.376	273.8198	256.227	235.5932	209.9751	187.1606	170.2381	147.4307	118.141	89.5004	62.4366	40.4072	25.1145	5.9597	2.7706	0.6719	0	0	0	0	0	0	0	0	0	0	0	0	0	0	0	0	0	0	0	0	0	0	0	0	0
380	536.656	500.9659	436.5457	390.3245	358.1252	343.6235	319.5147	312.5505	309.2617	302.0902	304.7706	301.4515	303.2794	296.0472	275.2273	258.1348	233.9678	203.0172	183.3353	159.9131	130.0246	102.6419	71.7398	49.8406	31.6429	15.8481	2.5254	0.9957	0	0	0	0	0	0	0	0	0	0	0	0	0	0	0	0	0	0	0	0	0	0	0	0	0
382	616.9286	522.7753	477.3981	410.1644	376.6452	355.5824	331.2412	327.9259	322.085	317.3342	321.3029	320.0375	319.5809	319.2071	299.9282	278.6057	251.0671	219.4545	196.9748	172.0815	145.0585	115.9772	84.596	58.8483	36.9823	21.4457	2.2959	1.9314	1.1033	0	0	0	0	0	0	0	0	0	0	0	0	0	0	0	0	0	0	0	0	0	0	0	0
384	606.3559	560.1502	478.7826	431.332	391.2748	360.9071	349.6165	346.5399	338.2203	334.1633	330.5751	339.497	341.5869	326.4997	319.3039	293.3323	264.6867	232.4597	210.3942	184.0522	159.8605	129.1063	96.6328	68.9759	46.9523	28.6824	11.185	3.4618	2.1894	0	0	0	0	0	0	0	0	0	0	0	0	0	0	0	0	0	0	0	0	0	0	0	0
386	602.6359	571.9442	490.5663	454.7754	400.2579	385.9284	363.6602	357.977	352.0459	349.6937	347.9143	357.613	357.6979	349.6884	338.0426	316.0449	288.3469	259.2018	224.4337	199.3894	174.2721	142.5607	108.8873	80.2592	55.1347	37.12	19.7126	4.9865	3.2704	0.5502	0	0	0	0	0	0	0	0	0	0	0	0	0	0	0	0	0	0	0	0	0	0	0
388	678.6506	582.4925	531.3235	481.0235	436.2145	404.7149	378.0292	371.6957	373.0149	369.1223	363.8418	378.6792	377.913	367.67	356.8893	336.0893	305.9872	279.9127	239.2625	215.4187	188.4704	155.5525	121.5014	91.0717	64.8701	42.534	26.2358	6.5225	3.4518	1.0999	0	0	0	0	0	0	0	0	0	0	0	0	0	0	0	0	0	0	0	0	0	0	0
390	682.0469	624.6417	548.2452	510.733	454.8359	420.1239	405.2939	385.571	387.0783	381.3117	384.9277	402.6042	400.0823	394.1204	381.3329	355.4458	328.2386	296.0862	261.6529	231.4547	202.6722	168.5459	134.1167	102.0216	76.2397	50.7322	32.3728	15.0665	3.6331	1.649	0	0	0	0	0	0	0	0	0	0	0	0	0	0	0	0	0	0	0	0	0	0	0
392	731.5214	645.911	575.8821	504.6319	472.6926	443.7995	417.0462	396.3413	394.1228	391.0617	399.0149	405.3921	419.2462	420.6528	407.7081	382.6274	346.7971	318.1581	281.6585	246.0063	214.6127	180.4501	148.6192	115.9289	87.8131	60.6725	38.7974	21.4527	3.7914	2.697	1.2439	0	0	0	0	0	0	0	0	0	0	0	0	0	0	0	0	0	0	0	0	0	0
394	769.1803	690.3767	597.9571	548.9825	498.8626	461.2085	430.9507	418.3874	413.7533	411.3343	414.1094	426.9433	442.0556	434.3783	425.1995	403.0598	369.1808	336.5309	302.5799	260.3673	229.2866	197.8714	165.0245	129.6633	98.8194	70.0531	45.5564	27.3224	10.9216	4.2405	2.4716	0	0	0	0	0	0	0	0	0	0	0	0	0	0	0	0	0	0	0	0	0	0
396	802.7897	708.6292	633.4958	563.4189	503.0508	474.426	450.9042	432.6109	423.8872	428.8297	426.6994	446.26	454.1228	464.4719	437.3805	420.0604	395.925	358.2716	318.9855	281.0297	247.0344	215.4124	180.1788	143.4473	108.51	81.5057	55.5579	35.0011	18.209	5.7726	3.6889	0.6353	0	0	0	0	0	0	0	0	0	0	0	0	0	0	0	0	0	0	0	0	0
398	827.1069	743.4431	659.5927	571.5173	537.4176	484.9611	472.2161	450.8343	451.9654	443.4262	449.9303	468.0705	477.9548	480.1832	474.2834	440.1026	415.3188	387.4416	344.1598	306.6534	265.0361	231.7912	195.4981	157.3482	122.44	91.6606	64.7543	41.6627	24.3355	7.3006	3.9278	1.2661	0	0	0	0	0	0	0	0	0	0	0	0	0	0	0	0	0	0	0	0	0
400	897.7054	767.8089	655.8316	609.3035	561.1351	501.425	489.3828	468.6681	455.7044	455.7373	470.5035	476.7748	502.9525	503.6457	487.6116	467.3896	438.6535	411.4154	364.421	328.6024	282.9348	247.3909	209.5642	171.6897	136.2867	104.2302	75.0681	48.9218	31.3056	14.8889	4.1648	1.8926	0	0	0	0	0	0	0	0	0	0	0	0	0	0	0	0	0	0	0	0	0
402	898.7652	788.7054	677.4778	650.6234	588.472	534.9734	501.5409	478.4278	474.6106	475.0184	478.1593	496.8754	517.8654	520.6381	514.7709	492.4429	460.7404	435.0425	392.2849	348.3809	304.0471	262.4424	223.1581	186.6702	149.7913	113.3867	84.1598	57.1775	37.0109	20.8355	4.3926	2.9239	1.2312	0	0	0	0	0	0	0	0	0	0	0	0	0	0	0	0	0	0	0	0
404	908.3458	818.3779	737.3023	652.2733	613.5985	561.2744	532.2588	498.9876	492.2602	492.8653	497.5136	517.5876	532.769	542.631	537.2977	515.0591	483.2301	451.683	419.2415	373.58	325.5318	277.3423	237.6829	201.5038	163.1625	126.1816	92.903	66.9099	42.3498	27.7117	11.3101	4.356	2.4495	0	0	0	0	0	0	0	0	0	0	0	0	0	0	0	0	0	0	0	0
406	914.2643	826.4702	742.0376	662.7071	621.8263	582.0942	545.3038	513.5154	512.0651	501.9393	507.6676	526.6415	551.3632	562.8123	560.2115	536.9731	514.4721	475.9489	437.3062	397.324	347.2587	292.6421	253.0695	215.1571	176.5069	139.1103	103.013	74.0452	50.4872	32.8576	15.9739	5.7837	3.6618	0.2343	0	0	0	0	0	0	0	0	0	0	0	0	0	0	0	0	0	0	0
408	993.9063	863.2759	742.7526	711.3986	652.0298	598.0156	557.376	533.6631	520.1596	520.9825	524.8424	547.6775	570.9596	582.5924	577.8906	561.7263	535.4043	508.2423	462.541	417.051	367.9112	308.0898	268.8737	229.16	189.6795	152.2482	115.8312	83.8458	57.595	39.3699	23.5557	7.2151	2.9806	0.4678	0	0	0	0	0	0	0	0	0	0	0	0	0	0	0	0	0	0	0
410	964.5983	911.7463	829.2041	740.6928	668.4195	607.0925	577.5391	541.6515	535.499	529.1792	538.7606	564.0585	583.0247	606.016	603.3194	586.6697	560.6175	532.1746	486.6827	440.9877	391.2408	338.6197	284.6494	242.6779	202.8253	165.9998	127.4026	92.7426	67.2785	42.5233	29.0865	13.9585	2.3016	0.7006	0	0	0	0	0	0	0	0	0	0	0	0	0	0	0	0	0	0	0
412	1021.3016	920.37	839.4911	755.4749	695.7047	645.3646	585.6834	560.4266	548.1723	546.0828	551.6161	573.7584	602.0074	615.3536	623.4365	611.0178	583.9826	547.5672	513.2368	467.1219	412.368	362.7789	300.4196	256.6145	217.2479	180.377	138.9586	104.6777	75.4848	51.8243	34.0874	19.8004	1.6248	1.6593	1.1287	0	0	0	0	0	0	0	0	0	0	0	0	0	0	0	0	0	0
414	998.4662	940.9665	853.4057	794.9827	712.456	664.0639	611.316	571.918	564.5976	548.8531	571.8909	593.6013	618.0261	630.8591	638.6104	629.0803	606.3339	578.5397	536.9387	488.2168	439.9055	379.1595	320.304	271.1802	231.6447	191.8701	150.491	115.1752	82.1341	57.6229	40.3633	25.0912	10.6512	3.3406	2.2541	0	0	0	0	0	0	0	0	0	0	0	0	0	0	0	0	0	0
416	1055.2905	969.6612	871.8951	793.3594	712.6299	659.2974	623.3571	590.736	567.8642	565.4519	586.4613	595.9456	628.2305	652.2539	655.8701	652.3757	628.9412	597.2516	554.5015	514.0042	463.6684	401.1041	342.399	286.3759	246.5804	203.8047	162.3701	121.2314	91.0304	65.5047	46.7839	30.0218	17.0338	5.0284	3.3838	0.3665	0	0	0	0	0	0	0	0	0	0	0	0	0	0	0	0	0
418	1094.4893	999.7913	903.2082	805.5484	762.9155	684.4436	659.4883	595.6072	576.3856	577.7545	585.5898	617.4363	648.2389	664.0848	673.1127	679.256	647.2732	623.0008	588.4316	533.8131	486.6017	426.0788	359.5661	302.3063	259.2599	216.2626	175.6922	134.0808	103.2991	74.9535	51.221	35.3397	23.0486	6.7342	3.1142	0.7351	0	0	0	0	0	0	0	0	0	0	0	0	0	0	0	0	0
420	1121.6096	1003.3763	886.2055	839.4912	771.8345	711.3368	668.2904	613.891	600.7469	587.0135	602.2993	632.8914	664.2576	686.3138	698.4715	691.6024	669.4113	654.0149	613.4665	563.8884	502.1763	448.7581	382.4966	318.3507	273.0552	230.8488	189.2524	147.0202	111.609	83.1233	59.0794	40.2051	28.7233	13.536	2.843	1.106	0	0	0	0	0	0	0	0	0	0	0	0	0	0	0	0	0
422	1180.3062	1045.492	945.2902	869.8936	796.4752	741.6831	671.6991	633.6319	610.7549	595.6627	617.153	641.9185	672.6634	696.8771	710.6696	711.1859	704.3352	677.337	636.8476	588.7311	530.2261	469.6378	401.8274	339.2422	288.0504	245.5993	201.2	160.0882	119.858	91.959	65.5181	46.8783	33.0091	20.5788	2.5708	2.2218	1.3031	0	0	0	0	0	0	0	0	0	0	0	0	0	0	0	0
424	1147.249	1052.9689	962.6699	891.6056	815.4276	738.3462	686.0194	642.4745	626.5901	608.2337	625.5793	650.7542	689.789	716.2736	727.1296	736.8289	718.6143	691.8031	658.1982	610.4731	545.0389	485.1659	419.4301	359.7168	303.1575	258.6912	213.2338	173.253	130.8056	98.9416	72.2911	52.6434	37.2603	23.7932	10.0428	4.0895	2.6146	0	0	0	0	0	0	0	0	0	0	0	0	0	0	0	0
426	1150.3641	1085.2028	995.3557	898.3352	829.7007	763.2806	710.9104	651.038	632.0706	621.7795	629.8992	669.1722	696.6942	725.2149	747.2136	750.0627	733.9744	713.3375	683.386	630.9209	573.607	509.7608	440.0864	378.4517	318.8975	271.4311	226.9913	185.0999	142.0623	108.1589	81.3587	58.4111	43.7223	29.8376	16.1073	5.9791	3.9411	0.7006	0	0	0	0	0	0	0	0	0	0	0	0	0	0	0
428	1228.6339	1097.2247	993.9282	945.8044	858.1299	780.5575	720.3013	674.9766	636.8402	627.1689	648.386	669.9011	703.5588	736.4036	751.1016	763.7612	760.335	740.4589	703.9598	656.0384	592.8565	530.4768	454.8109	398.6726	332.7094	284.7569	241.2778	193.9221	153.6805	117.175	89.7122	65.9931	47.5365	34.4564	20.9958	7.8996	4.2816	1.4101	0	0	0	0	0	0	0	0	0	0	0	0	0	0	0
430	1248.2286	1125.7702	1040.07	929.3172	876.4298	801.2751	740.4871	681.5806	657.0707	639.7572	650.5438	673.0144	712.8128	759.7698	767.7805	790.0727	782.1953	766.937	728.7855	682.1918	618.9809	550.5545	484.3815	409.5607	353.3312	298.2467	252.2575	202.8487	165.4476	127.4255	95.9023	74.7162	55.5701	39.3845	25.972	13.1843	4.6261	2.1287	0	0	0	0	0	0	0	0	0	0	0	0	0	0	0
432	1256.9018	1176.4359	1051.0951	976.6312	896.4403	807.7347	757.5992	707.1118	666.7591	645.7551	665.646	692.8183	723.1828	772.7499	788.6221	805.4073	794.5092	785.1933	754.4312	703.7571	638.8887	569.2903	493.621	429.2558	366.2173	311.5558	261.3233	214.7802	176.7229	137.6544	105.166	77.808	60.6241	44.1984	31.2121	18.7225	4.9692	3.4055	1.4786	0	0	0	0	0	0	0	0	0	0	0	0	0	0
