Description	ECS-A (clean blank)																																																				
EEM type	"Dilution- & Scatter-corrected, Calibrated Data (ppb QSE)"																																																				
Scan date	10/12/2010 10:19																																																				
Excitation	240-500nm by 5nm																																																				
Emission	290-600nm by 2nm																																																				
Calibration	Michael_Fluoromax4_April08 (07-Apr-2008)																																																				
Slit settings	"5nm Excitation, 5nm Emission"																																																				
Dilution	3																																																				
Row 1	Excitation(nm)																																																				
Col 1	Emission(nm)																																																				
Data	Fluorescence(ppb QSE)																																																				
																																																					
	240	245	250	255	260	265	270	275	280	285	290	295	300	305	310	315	320	325	330	335	340	345	350	355	360	365	370	375	380	385	390	395	400	405	410	415	420	425	430	435	440	445	450	455	460	465	470	475	480	485	490	495	500
290	0	0	0	0	0	0	0	0	0	0	0	0	0	0	0	0	0	0	0	0	0	0	0	0	0	0	0	0	0	0	0	0	0	0	0	0	0	0	0	0	0	0	0	0	0	0	0	0	0	0	0	0	0
292	0	0	0	0	0	0	0.0145	0.381	0	0	0	0	0	0	0	0	0	0	0	0	0	0	0	0	0	0	0	0	0	0	0	0	0	0	0	0	0	0	0	0	0	0	0	0	0	0	0	0	0	0	0	0	0
294	0	0	0	0	0	0.0304	0.0717	0.7538	0	0	0	0	0	0	0	0	0	0	0	0	0	0	0	0	0	0	0	0	0	0	0	0	0	0	0	0	0	0	0	0	0	0	0	0	0	0	0	0	0	0	0	0	0
296	0	0	0	0	0.0487	0.0899	1.1884	1.1168	0	0	0	0	0	0	0	0	0	0	0	0	0	0	0	0	0	0	0	0	0	0	0	0	0	0	0	0	0	0	0	0	0	0	0	0	0	0	0	0	0	0	0	0	0
298	0	0	0	0	0.112	0.1478	2.275	1.4686	0.5754	0	0	0	0	0	0	0	0	0	0	0	0	0	0	0	0	0	0	0	0	0	0	0	0	0	0	0	0	0	0	0	0	0	0	0	0	0	0	0	0	0	0	0	0
300	0	0	0	0	0.1735	1.2963	2.9732	1.8101	1.1349	0	0	0	0	0	0	0	0	0	0	0	0	0	0	0	0	0	0	0	0	0	0	0	0	0	0	0	0	0	0	0	0	0	0	0	0	0	0	0	0	0	0	0	0
302	0	0	0	0	0.237	2.452	3.3507	2.7731	1.7055	0	0	0	0	0	0	0	0	0	0	0	0	0	0	0	0	0	0	0	0	0	0	0	0	0	0	0	0	0	0	0	0	0	0	0	0	0	0	0	0	0	0	0	0
304	0	0	0	0	0.3077	3.6126	3.7296	3.7399	2.2782	0.7071	0	0	0	0	0	0	0	0	0	0	0	0	0	0	0	0	0	0	0	0	0	0	0	0	0	0	0	0	0	0	0	0	0	0	0	0	0	0	0	0	0	0	0
306	0	0	0	0	2.0292	4.7756	4.723	4.5083	2.8515	1.4161	0	0	0	0	0	0	0	0	0	0	0	0	0	0	0	0	0	0	0	0	0	0	0	0	0	0	0	0	0	0	0	0	0	0	0	0	0	0	0	0	0	0	0
308	0	0	0	0	2.8905	5.9394	5.7167	5.0761	3.7897	2.1261	0	0	0	0	0	0	0	0	0	0	0	0	0	0	0	0	0	0	0	0	0	0	0	0	0	0	0	0	0	0	0	0	0	0	0	0	0	0	0	0	0	0	0
310	0	0	0	0.5402	3.2037	6.2328	6.7124	5.6449	4.7296	2.8373	0.8703	0	0	0	0	0	0	0	0	0	0	0	0	0	0	0	0	0	0	0	0	0	0	0	0	0	0	0	0	0	0	0	0	0	0	0	0	0	0	0	0	0	0
312	0	0.2414	0	0.7135	3.9539	6.7987	7.6635	6.5365	5.516	3.5285	1.7319	0	0	0	0	0	0	0	0	0	0	0	0	0	0	0	0	0	0	0	0	0	0	0	0	0	0	0	0	0	0	0	0	0	0	0	0	0	0	0	0	0	0
314	0.1206	0	0	1.4724	3.9483	7.1803	8.6047	7.4188	6.1734	4.5824	2.5846	0	0	0	0	0	0	0	0	0	0	0	0	0	0	0	0	0	0	0	0	0	0	0	0	0	0	0	0	0	0	0	0	0	0	0	0	0	0	0	0	0	0
316	0.0164	1.1229	2.4249	3.9463	5.1134	6.7728	9.7678	8.2641	6.801	5.6069	3.4171	0.9138	0	0	0	0	0	0	0	0	0	0	0	0	0	0	0	0	0	0	0	0	0	0	0	0	0	0	0	0	0	0	0	0	0	0	0	0	0	0	0	0	0
318	3.5718	0	2.3491	3.0883	5.8104	8.328	9.9721	9.0633	7.7467	6.4701	4.2208	1.806	0	0	0	0	0	0	0	0	0	0	0	0	0	0	0	0	0	0	0	0	0	0	0	0	0	0	0	0	0	0	0	0	0	0	0	0	0	0	0	0	0
320	3.3653	2.478	3.0636	3.9423	6.4368	9.2947	10.2841	9.8409	8.6677	7.1914	5.0626	2.6767	0	0	0	0	0	0	0	0	0	0	0	0	0	0	0	0	0	0	0	0	0	0	0	0	0	0	0	0	0	0	0	0	0	0	0	0	0	0	0	0	0
322	5.5944	2.2799	2.5473	5.8242	7.693	8.9967	10.9417	11.2983	9.5196	7.8565	5.8553	3.5093	0.8775	0	0	0	0	0	0	0	0	0	0	0	0	0	0	0	0	0	0	0	0	0	0	0	0	0	0	0	0	0	0	0	0	0	0	0	0	0	0	0	0
324	5.3053	6.3756	5.0626	7.1445	8.1053	10.1591	10.9917	10.7217	10.3374	8.5486	6.5993	4.312	1.7251	0	0	0	0	0	0	0	0	0	0	0	0	0	0	0	0	0	0	0	0	0	0	0	0	0	0	0	0	0	0	0	0	0	0	0	0	0	0	0	0
326	9.1922	5.3269	5.8201	7.3021	9.4151	10.5305	10.9617	12.0827	11.1161	9.2078	7.2921	5.0206	2.5417	0	0	0	0	0	0	0	0	0	0	0	0	0	0	0	0	0	0	0	0	0	0	0	0	0	0	0	0	0	0	0	0	0	0	0	0	0	0	0	0
328	7.9761	5.4025	6.7569	7.4084	10.2763	10.7494	11.9459	12.1923	11.8199	9.8329	7.9517	5.698	3.3262	0.9885	0	0	0	0	0	0	0	0	0	0	0	0	0	0	0	0	0	0	0	0	0	0	0	0	0	0	0	0	0	0	0	0	0	0	0	0	0	0	0
330	9.4338	8.0823	7.5323	8.7023	10.106	11.0507	12.3883	12.4931	12.314	10.4275	8.5239	6.366	4.0791	1.9398	0	0	0	0	0	0	0	0	0	0	0	0	0	0	0	0	0	0	0	0	0	0	0	0	0	0	0	0	0	0	0	0	0	0	0	0	0	0	0
332	11.2227	9.7379	8.3645	9.7732	10.1325	12.2185	12.1566	13.2607	12.8694	10.8735	8.9706	6.948	4.9346	2.8231	0.6304	0	0	0	0	0	0	0	0	0	0	0	0	0	0	0	0	0	0	0	0	0	0	0	0	0	0	0	0	0	0	0	0	0	0	0	0	0	0
334	10.7455	9.7145	8.7247	9.8792	11.7578	12.2368	12.0287	12.84	12.8803	11.6454	9.3736	7.4822	5.7299	3.6487	1.5885	0	0	0	0	0	0	0	0	0	0	0	0	0	0	0	0	0	0	0	0	0	0	0	0	0	0	0	0	0	0	0	0	0	0	0	0	0	0
336	12.2432	9.8936	9.9594	10.6706	11.477	12.8277	12.3416	13.7407	13.0961	12.1009	9.743	8.1469	6.4526	4.4208	2.4873	0.5172	0	0	0	0	0	0	0	0	0	0	0	0	0	0	0	0	0	0	0	0	0	0	0	0	0	0	0	0	0	0	0	0	0	0	0	0	0
338	13.7944	11.6457	10.139	10.9481	11.9439	12.8523	13.3126	13.1524	13.9561	12.4843	10.0808	8.7636	7.1072	5.341	3.3295	1.0917	0.2449	0	0	0	0	0	0	0	0	0	0	0	0	0	0	0	0	0	0	0	0	0	0	0	0	0	0	0	0	0	0	0	0	0	0	0	0
340	15.5868	14.0153	11.3563	11.9022	13.1552	12.9118	13.6571	13.6302	13.8732	12.7338	11.1768	9.3249	7.7073	6.1941	4.1133	2.3088	1.0122	0	0	0	0	0	0	0	0	0	0	0	0	0	0	0	0	0	0	0	0	0	0	0	0	0	0	0	0	0	0	0	0	0	0	0	0
342	17.4752	12.3789	13.2507	13.0458	12.7163	13.8163	13.9924	14.0023	13.9344	13.4205	11.91	9.8846	8.4848	6.9519	4.8652	3.463	1.6291	0.3334	0	0	0	0	0	0	0	0	0	0	0	0	0	0	0	0	0	0	0	0	0	0	0	0	0	0	0	0	0	0	0	0	0	0	0
344	17.6726	15.0591	12.3709	13.1278	14.1488	14.3935	15.0828	14.489	14.4836	13.724	12.1573	10.3975	9.206	7.5925	6.0673	4.5486	2.7651	1.4036	0	0	0	0	0	0	0	0	0	0	0	0	0	0	0	0	0	0	0	0	0	0	0	0	0	0	0	0	0	0	0	0	0	0	0
346	19.3781	14.936	15.8153	14.7171	14.5945	14.4389	14.3701	15.2079	15.4655	14.3857	13.0688	11.2573	9.8969	8.2055	7.2105	5.5801	3.7797	2.0153	0.459	0	0	0	0	0	0	0	0	0	0	0	0	0	0	0	0	0	0	0	0	0	0	0	0	0	0	0	0	0	0	0	0	0	0
348	21.7995	18.9494	16.6388	15.476	15.9662	15.3097	15.7205	15.7395	15.5544	15.0555	14.0642	12.3872	10.5647	9.2703	8.2285	6.5663	4.7477	3.2099	1.705	0	0	0	0	0	0	0	0	0	0	0	0	0	0	0	0	0	0	0	0	0	0	0	0	0	0	0	0	0	0	0	0	0	0
350	20.3605	20.0746	17.234	16.0305	15.7411	16.3822	16.623	15.6233	15.9981	15.5209	14.421	13.3872	11.1858	10.2709	9.1113	7.4343	5.662	4.18	2.4854	1.0069	0	0	0	0	0	0	0	0	0	0	0	0	0	0	0	0	0	0	0	0	0	0	0	0	0	0	0	0	0	0	0	0	0
352	26.2557	21.6474	19.4035	17.3586	16.6307	16.8297	16.8082	16.4489	16.355	15.9417	15.4357	14.2176	12.7799	11.2093	9.9392	8.2499	6.5236	4.8002	3.5413	1.9646	0	0.1021	0.1159	0	0	0	0	0	0	0	0	0	0	0	0	0	0	0	0	0	0	0	0	0	0	0	0	0	0	0	0	0	0
354	27.4481	22.6693	19.8605	19.2565	18.2013	17.2951	17.3753	17.3856	17.2673	17.0913	16.0075	15.246	13.7105	12.0836	10.6524	9.0119	7.6684	6.1239	4.4039	2.7969	0.9804	0.2982	0.2256	0	0	0	0	0	0	0	0	0	0	0	0	0	0	0	0	0	0	0	0	0	0	0	0	0	0	0	0	0	0
356	28.3165	23.8012	21.027	20.0794	18.4609	18.1403	17.9612	17.8335	17.683	16.9814	16.8526	16.1345	14.788	12.9381	11.6789	10.4115	9.0892	7.3944	5.6456	3.576	1.981	0.485	0.3302	0.0205	0	0	0	0	0	0	0	0	0	0	0	0	0	0	0	0	0	0	0	0	0	0	0	0	0	0	0	0	0
358	28.9283	26.8224	22.3665	21.2271	20.6261	19.1533	18.6763	18.5787	18.1879	18.2512	17.6114	16.9229	15.9452	14.5882	13.0081	11.7738	10.4464	8.626	6.6005	4.6746	2.9552	0.6645	0.2633	0.0401	0	0	0	0	0	0	0	0	0	0	0	0	0	0	0	0	0	0	0	0	0	0	0	0	0	0	0	0	0
360	30.7921	28.4396	23.9705	22.6696	21.0338	19.8691	19.1766	19.7931	19.1686	18.926	18.5077	17.9841	17.4486	15.7348	14.2697	13.0464	11.7372	9.798	7.9113	5.9744	3.6604	1.9076	0.199	0.0588	0	0	0	0	0	0	0	0	0	0	0	0	0	0	0	0	0	0	0	0	0	0	0	0	0	0	0	0	0
362	31.5475	29.4205	26.4017	24.0761	22.2038	21.5065	20.6934	19.9059	20.0718	19.5708	19.4067	19.3478	18.4316	17.4518	15.5731	14.3421	12.8963	11.1221	9.2233	7.2189	4.6662	2.6968	0.1383	0.213	0.1788	0	0	0	0	0	0	0	0	0	0	0	0	0	0	0	0	0	0	0	0	0	0	0	0	0	0	0	0
364	37.0203	30.4565	28.5741	25.9181	22.9669	22.5971	21.5467	20.9154	21.3451	21.1727	21.174	20.5034	19.5359	18.7184	17.3282	15.5922	14.0144	12.6667	10.4915	8.0281	5.8308	3.6626	1.583	0.4959	0.352	0	0	0	0	0	0	0	0	0	0	0	0	0	0	0	0	0	0	0	0	0	0	0	0	0	0	0	0
366	39.625	34.7803	30.6485	27.6453	25.1054	23.8508	22.68	22.1228	22.1555	22.2844	21.9695	21.5453	20.9845	20.1871	18.8812	16.8104	15.3654	14.1701	11.7258	9.2213	6.6363	4.5116	2.6357	0.7704	0.52	0.0692	0	0	0	0	0	0	0	0	0	0	0	0	0	0	0	0	0	0	0	0	0	0	0	0	0	0	0
368	41.6249	36.463	32.817	28.7418	27.2538	25.2023	23.7741	23.2439	23.3752	23.1973	23.0799	23.0233	22.3341	21.6222	19.9065	18.0001	16.813	15.3463	12.907	10.384	7.931	5.3573	3.4162	1.0372	0.5014	0.1364	0	0	0	0	0	0	0	0	0	0	0	0	0	0	0	0	0	0	0	0	0	0	0	0	0	0	0
370	40.4576	38.7121	35.1357	30.7449	28.6736	26.4659	25.2003	24.4303	24.418	23.8652	24.596	24.182	23.681	22.8456	21.7384	20.2916	18.2128	16.4828	14.0055	11.5094	9.002	6.4758	4.2864	2.0632	0.4831	0.2016	0	0	0	0	0	0	0	0	0	0	0	0	0	0	0	0	0	0	0	0	0	0	0	0	0	0	0
372	48.3177	42.3721	36.4509	33.1731	29.3165	27.4173	26.5304	25.7459	25.5013	25.6362	25.9524	25.5357	25.4059	24.6664	23.3189	21.9007	19.666	17.6264	15.1441	12.9337	10.3254	7.3706	5.0622	3.0918	0.4676	0.3889	0.2212	0	0	0	0	0	0	0	0	0	0	0	0	0	0	0	0	0	0	0	0	0	0	0	0	0	0
374	50.8937	44.1391	38.9202	35.4525	32.2657	29.6303	27.8195	27.0474	26.8715	27.2148	27.0343	27.0964	26.7173	25.691	24.7371	23.4251	21.0881	18.996	16.8002	14.5978	11.6219	8.7915	5.9756	3.9381	1.7522	0.6939	0.4379	0	0	0	0	0	0	0	0	0	0	0	0	0	0	0	0	0	0	0	0	0	0	0	0	0	0
376	53.1105	47.518	40.9835	37.0799	33.6698	31.0682	29.0995	28.2577	27.557	28.3575	28.0256	28.4931	28.4518	27.4466	27.0007	25.0298	22.6474	20.5881	18.4059	15.9524	12.8803	9.67	6.9722	4.7438	2.5652	0.9919	0.6497	0.1141	0	0	0	0	0	0	0	0	0	0	0	0	0	0	0	0	0	0	0	0	0	0	0	0	0
378	57.1769	49.7013	44.8165	39.2102	35.6133	32.9205	31.3568	29.8809	29.3584	29.6357	29.7729	30.5372	30.1369	29.7724	28.4287	26.687	24.4326	22.1228	19.9563	17.2596	14.0967	11.0415	8.3021	5.6194	3.5724	1.282	0.6899	0.2254	0	0	0	0	0	0	0	0	0	0	0	0	0	0	0	0	0	0	0	0	0	0	0	0	0
380	60.7094	54.4758	47.2357	40.9895	37.5324	33.8745	33.0079	31.2769	31.0266	31.1024	31.2073	31.8081	31.6972	31.5329	30.1346	29.0072	26.155	23.6161	21.2079	18.478	15.281	12.3786	9.3788	6.4668	4.2679	2.3503	0.7289	0.334	0	0	0	0	0	0	0	0	0	0	0	0	0	0	0	0	0	0	0	0	0	0	0	0	0
382	61.0235	56.8494	49.9586	43.3473	40.0219	36.2981	34.2634	32.8663	32.1615	32.0161	33.0601	33.3233	33.3704	32.9492	31.5441	30.159	27.7915	25.1833	22.5272	19.6995	16.7208	13.7436	10.6507	7.6106	5.2288	3.3809	0.7703	0.5533	0.2594	0	0	0	0	0	0	0	0	0	0	0	0	0	0	0	0	0	0	0	0	0	0	0	0
384	63.7498	59.7245	51.2121	46.7401	41.9787	37.8587	36.0816	33.7631	33.344	33.4963	34.2229	34.878	34.8903	34.585	33.2147	31.7015	29.899	26.9293	23.8247	20.9007	18.138	15.0873	11.8747	8.8629	6.1622	3.9976	1.8745	0.8797	0.5148	0	0	0	0	0	0	0	0	0	0	0	0	0	0	0	0	0	0	0	0	0	0	0	0
386	68.8093	62.0089	52.4529	48.7246	44.6736	39.2691	36.0881	35.0996	34.1993	34.7777	35.2895	36.3402	36.6553	35.9137	34.8042	33.4574	31.6653	28.5135	25.1947	22.378	19.5714	16.4711	13.1283	10.0024	7.3363	4.9547	2.9194	1.2054	0.7691	0.1937	0	0	0	0	0	0	0	0	0	0	0	0	0	0	0	0	0	0	0	0	0	0	0
388	68.5103	62.2227	56.9692	49.6326	46.0753	41.6916	37.9963	36.5945	35.7443	36.1884	36.8376	37.4445	37.6948	37.6586	36.9334	34.9972	32.6669	30.1109	26.6541	23.9337	21.0385	17.8077	14.426	11.2774	8.3629	5.9006	3.7508	1.5341	0.9605	0.3871	0	0	0	0	0	0	0	0	0	0	0	0	0	0	0	0	0	0	0	0	0	0	0
390	71.6883	68.2299	58.7995	52.5843	47.8367	43.5336	39.5215	38.2003	36.8563	37.2482	38.229	38.9581	39.362	39.1793	38.056	36.6664	34.4655	31.7262	28.6748	25.4899	22.5059	19.1444	15.7239	12.5446	9.7182	6.8623	4.6534	2.5077	1.1517	0.5804	0	0	0	0	0	0	0	0	0	0	0	0	0	0	0	0	0	0	0	0	0	0	0
392	76.0042	70.2538	62.4116	54.1358	49.7878	44.4094	40.6648	38.9109	38.6951	38.8214	38.7686	40.0471	40.7771	40.7825	39.7216	38.537	35.9917	33.3292	30.5473	26.8836	23.7241	20.3581	17.0455	13.9157	10.6125	8.0572	5.5645	3.36	1.3348	0.874	0.3492	0	0	0	0	0	0	0	0	0	0	0	0	0	0	0	0	0	0	0	0	0	0
394	80.7608	72.0413	64.9604	57.7669	51.2066	46.6394	42.1577	39.8659	39.749	39.6651	40.7829	41.8883	42.3091	42.8729	41.6098	40.1059	37.4597	35.2742	32.2733	28.2586	25.0574	21.8135	18.5182	15.2695	12.0174	9.2389	6.4301	4.378	2.3215	1.2681	0.6939	0	0	0	0	0	0	0	0	0	0	0	0	0	0	0	0	0	0	0	0	0	0
396	82.7466	74.7272	66.295	59.705	54.1894	48.5642	44.9407	42.1625	40.7844	40.8933	42.0046	43.1185	44.2531	44.1169	43.1721	41.5533	39.6632	37.1002	33.7359	30.5565	26.5449	23.2864	20.0887	16.6317	13.3022	10.5599	7.6914	5.1146	3.1708	1.6596	1.0358	0.2074	0	0	0	0	0	0	0	0	0	0	0	0	0	0	0	0	0	0	0	0	0
398	83.6976	78.6028	71.2279	62.3502	56.4307	50.8668	46.9841	43.1554	43.0347	42.6047	43.5486	45.1779	45.5661	45.9181	44.9979	43.5067	41.4485	38.8598	35.6659	32.3782	28.0622	24.8721	21.6785	18.0092	14.7519	11.8882	8.7752	5.8942	4.1079	2.0504	1.1705	0.4134	0	0	0	0	0	0	0	0	0	0	0	0	0	0	0	0	0	0	0	0	0
400	93.5323	82.2615	70.9743	65.3166	58.6775	53.0033	48.9723	45.5581	44.0352	43.2728	45.0459	46.357	47.7249	47.9388	46.85	45.4608	43.1877	40.8268	37.3931	34.0717	29.5702	26.4924	23.0724	19.4225	16.1928	12.9291	9.8609	6.8103	4.9046	2.8531	1.3042	0.6179	0	0	0	0	0	0	0	0	0	0	0	0	0	0	0	0	0	0	0	0	0
402	94.7143	86.0465	76.1188	67.806	61.2658	54.4419	48.906	46.5714	45.4046	45.0231	46.7168	47.8036	48.7267	49.5733	49.1584	47.4682	45.5214	42.5261	39.1493	36.1399	32.0855	28.0542	24.4155	20.8798	17.5946	14.4612	11.1645	8.0862	5.5163	3.7518	1.4346	0.8587	0.2884	0	0	0	0	0	0	0	0	0	0	0	0	0	0	0	0	0	0	0	0
404	94.7049	87.3901	77.8761	70.8149	62.9569	56.9936	52.052	48.2281	46.7976	46.4959	47.7347	49.1437	50.3342	50.9073	50.4195	49.3253	46.6771	44.3902	41.1644	38.0453	33.9048	29.6004	25.835	22.3225	18.9825	15.6691	12.2592	9.0246	6.4747	4.5544	2.3174	1.1358	0.5739	0	0	0	0	0	0	0	0	0	0	0	0	0	0	0	0	0	0	0	0
406	97.9999	89.1786	80.5776	74.1462	65.8383	59.4791	53.1763	50.0446	48.821	48.0459	48.7475	50.4433	52.3589	52.4835	52.3955	51.2751	48.9697	46.102	43.2691	39.6816	35.8565	31.1895	27.3365	23.745	20.332	16.8963	13.5161	10.2424	7.2135	5.3331	3.0089	1.4127	0.8579	0.1452	0	0	0	0	0	0	0	0	0	0	0	0	0	0	0	0	0	0	0
408	102.3204	93.7192	84.7069	75.6384	68.7069	61.5048	55.8603	51.5558	49.5738	49.8332	50.738	52.5409	53.4054	54.5119	54.0739	53.121	50.6973	48.3934	45.5165	41.5272	37.7571	33.4721	28.8835	25.2064	21.5889	18.1502	14.8258	11.2658	8.4046	6.0363	4.004	1.6908	0.908	0.29	0	0	0	0	0	0	0	0	0	0	0	0	0	0	0	0	0	0	0
410	105.7104	96.5297	86.7249	77.6527	71.3104	62.6566	56.8915	53.3058	51.3173	50.5917	52.2816	53.7072	54.9843	55.8801	56.138	54.7813	52.9482	50.189	47.4685	43.818	39.7086	35.3767	30.4276	26.5378	22.8432	19.5459	16.0966	12.5602	9.4594	6.877	4.6552	2.5487	0.9579	0.4344	0	0	0	0	0	0	0	0	0	0	0	0	0	0	0	0	0	0	0
412	111.3857	99.9019	91.4492	83.1349	74.4696	65.3972	59.2864	54.8202	52.6951	51.881	52.3934	54.7287	56.8359	57.1493	57.651	56.4103	54.1904	51.8938	48.9344	45.7654	41.6027	37.1324	31.9713	27.9525	24.3873	21.0849	17.366	13.912	10.6126	7.7833	5.5691	3.4122	1.0077	0.6734	0.2817	0	0	0	0	0	0	0	0	0	0	0	0	0	0	0	0	0	0
414	112.9311	104.397	89.5287	83.8443	76.1013	68.6529	60.9646	56.0427	53.8239	53.6801	54.5771	55.7065	57.0336	58.0398	58.4437	57.9029	56.1988	53.937	50.7391	47.3302	43.4199	38.8958	34.291	29.5123	25.9287	22.3481	18.6329	14.8073	11.4965	8.7907	6.4665	4.1149	2.0694	1.0065	0.5627	0	0	0	0	0	0	0	0	0	0	0	0	0	0	0	0	0	0
416	115.291	106.7131	95.4682	86.683	79.0354	69.4377	62.4753	57.9302	55.9342	54.6178	55.0315	57.114	58.7304	59.5116	60.2422	59.6763	57.7319	55.6071	52.7178	48.9867	44.6126	40.7319	36.0304	31.1408	27.5305	23.6628	19.9428	16.26	12.7176	9.9377	7.2133	4.8124	3.0712	1.3418	0.8447	0.1916	0	0	0	0	0	0	0	0	0	0	0	0	0	0	0	0	0
418	121.7224	108.818	97.4591	90.4865	81.3967	72.5035	65.239	59.7464	57.4166	55.8359	56.0812	58.4582	60.0914	61.3083	62.0589	60.9684	59.6765	57.5033	54.5598	51.1914	47.0942	42.7993	37.9316	32.8492	28.9271	25.0382	21.3953	17.5446	13.8584	10.9164	8.072	5.5719	3.7557	1.6815	1.0102	0.3843	0	0	0	0	0	0	0	0	0	0	0	0	0	0	0	0	0
420	120.7539	111.8295	101.221	90.7892	82.767	74.657	67.6694	60.836	58.2721	57.3723	57.5559	58.8752	61.4358	62.328	62.9958	62.5694	61.2581	59.5286	56.515	53.3547	48.7513	44.2359	39.5264	34.5699	30.425	26.6052	22.8524	18.838	15.2909	12.081	9.0207	6.3876	4.5667	2.6389	1.1767	0.5783	0	0	0	0	0	0	0	0	0	0	0	0	0	0	0	0	0
422	122.2312	112.2529	103.4259	93.675	86.3248	74.9736	69.2168	63.6972	59.2605	58.2291	58.5015	60.0859	62.3844	63.5884	64.8085	64.387	63.1786	61.1622	58.469	54.8617	50.8433	46.24	41.4505	36.6185	32.0334	28.1905	24.1315	20.1452	16.1547	13.0311	9.9872	7.1278	5.2619	3.4425	1.3445	0.8641	0.3325	0	0	0	0	0	0	0	0	0	0	0	0	0	0	0	0
424	126.1084	116.9426	105.8097	95.5055	89.3292	80.0815	70.4358	64.0465	60.6936	59.4745	59.6664	61.4116	63.042	64.4767	65.8056	65.726	64.6477	62.6053	60.0544	56.6823	52.5498	48.0896	42.7719	38.3138	33.6539	29.5922	25.4198	21.4619	17.3693	13.9481	10.9453	8.0007	6.0393	3.9893	2.2498	1.2426	0.6673	0	0	0	0	0	0	0	0	0	0	0	0	0	0	0	0
426	130.7667	119.9818	108.5977	98.6823	89.4233	80.1551	72.2159	66.1365	62.5041	60.5518	60.535	62.2751	64.6306	65.4343	66.4453	67.2608	66.4848	64.4554	61.9257	58.2518	54.0797	49.8163	44.6164	39.7582	35.3442	30.9565	26.8021	22.7435	18.623	15.162	11.8486	9.0097	6.8696	4.8477	2.9441	1.6262	1.0059	0.2367	0	0	0	0	0	0	0	0	0	0	0	0	0	0	0
428	134.5456	119.9898	110.2609	100.8413	93.1251	82.987	74.614	66.9228	64.0165	60.9751	61.518	62.5245	64.9555	65.8751	67.637	68.2414	67.2225	65.9435	63.3941	59.9804	56.4257	51.3319	46.268	41.8077	37.0726	32.3866	28.2438	23.9119	19.9215	16.1805	12.8516	9.9745	7.4627	5.5238	3.7445	2.0169	1.2284	0.4765	0	0	0	0	0	0	0	0	0	0	0	0	0	0	0
430	132.459	125.2508	111.4995	102.916	94.2775	83.6407	76.011	69.5334	63.9991	63.8241	62.2571	63.7462	66.4341	67.4667	69.0685	69.5946	68.5253	67.3275	64.6457	61.5857	57.9602	53.3302	47.9416	43.1926	38.7141	33.8342	29.5375	25.0946	21.2365	17.3823	14.0657	10.7885	8.3589	6.3453	4.4886	2.7073	1.4537	0.7194	0	0	0	0	0	0	0	0	0	0	0	0	0	0	0
432	134.3285	124.0112	113.1973	106.6608	96.9662	87.1696	76.8631	70.3859	66.7472	63.6659	63.193	64.8495	66.513	68.317	69.2986	70.5796	70.3922	69.1599	66.4131	63.0831	59.3267	55.0991	49.1605	44.2992	40.0719	35.2602	30.7292	26.4232	22.5116	18.5789	14.9582	11.7297	9.1761	6.9941	5.2559	3.5364	1.6799	1.0299	0.3581	0	0	0	0	0	0	0	0	0	0	0	0	0	0
434	141.009	126.2347	116.2307	106.4457	98.9161	87.5209	79.1156	70.862	66.4891	64.5181	63.7618	65.5028	67.0644	69.8084	70.4411	71.1994	70.9852	70.6366	67.796	64.4531	60.5797	55.5436	50.8684	45.5851	41.7653	36.8233	31.933	27.7658	23.7364	19.7882	16.087	12.6889	10.0102	7.8393	5.9068	4.2899	2.4012	1.4095	0.7201	0	0	0	0	0	0	0	0	0	0	0	0	0	0
436	138.3607	128.8123	116.7818	105.8664	99.367	90.1771	80.405	72.3652	67.9028	64.448	64.8747	66.2831	68.3306	69.7303	71.6657	72.6269	72.6574	71.0107	69.1221	65.2906	61.9407	57.815	52.1657	47.0139	42.8984	38.5224	33.1918	29.0959	25.0063	21.0375	16.9952	13.6233	10.9849	8.5351	6.5985	5.0116	3.2223	1.7954	1.0873	0.2371	0	0	0	0	0	0	0	0	0	0	0	0	0
438	140.8195	131.2353	118.8286	111.5296	100.7868	90.2179	81.8824	73.5055	69.6143	65.6894	65.833	66.607	67.958	69.9836	72.2758	72.9187	72.9722	72.4713	70.3313	66.6176	63.2021	58.6365	53.0917	47.8776	44.3669	39.7469	34.51	30.3364	26.1008	21.992	17.9521	14.6152	11.9175	9.4708	7.27	5.5968	3.7792	2.189	1.2918	0.478	0	0	0	0	0	0	0	0	0	0	0	0	0
440	137.5727	133.685	120.288	111.4151	101.4232	92.7494	83.2569	74.5455	70.4764	67.2671	66.2509	67.4345	69.3475	70.2673	72.5804	74.2184	74.0413	73.2505	71.4555	68.3317	64.359	59.9832	54.4174	49.6358	45.3236	41.0586	35.9805	31.253	26.9833	22.8057	18.9225	15.607	12.753	10.1969	7.9542	6.1943	4.4535	2.8439	1.4994	0.7225	0	0	0	0	0	0	0	0	0	0	0	0	0
442	141.288	131.1733	120.0609	112.2731	104.4817	94.1101	83.1821	75.566	71.3001	67.3815	66.8546	67.3607	69.2224	70.9439	73.0179	74.6842	74.6769	74.3412	72.3104	69.4844	65.4718	60.9415	55.2331	50.5445	46.9001	42.0194	37.4079	32.1557	27.8551	23.5312	19.8908	16.3617	13.6292	11.0341	8.7997	6.8177	5.0671	3.5643	1.7086	1.0088	0.3254	0	0	0	0	0	0	0	0	0	0	0	0
