Description	SOS-31 (clean blank)																																																				
EEM type	"Dilution- & Scatter-corrected, Calibrated Data (ppb QSE)"																																																				
Scan date	1/19/2012 15:44																																																				
Excitation	240-500nm by 5nm																																																				
Emission	290-600nm by 2nm																																																				
Calibration	Michael_Fluoromax4_April08 (07-Apr-2008)																																																				
Slit settings	"5nm Excitation, 5nm Emission"																																																				
Dilution	25																																																				
Row 1	Excitation(nm)																																																				
Col 1	Emission(nm)																																																				
Data	Fluorescence(ppb QSE)																																																				
																																																					
	240	245	250	255	260	265	270	275	280	285	290	295	300	305	310	315	320	325	330	335	340	345	350	355	360	365	370	375	380	385	390	395	400	405	410	415	420	425	430	435	440	445	450	455	460	465	470	475	480	485	490	495	500
290	0	0	0	0	0	0	0	0	0	0	0	0	0	0	0	0	0	0	0	0	0	0	0	0	0	0	0	0	0	0	0	0	0	0	0	0	0	0	0	0	0	0	0	0	0	0	0	0	0	0	0	0	0
292	0	0	0	0	0	0	0	2.5003	0	0	0	0	0	0	0	0	0	0	0	0	0	0	0	0	0	0	0	0	0	0	0	0	0	0	0	0	0	0	0	0	0	0	0	0	0	0	0	0	0	0	0	0	0
294	0	0	0	0	0	0	0	4.9465	0	0	0	0	0	0	0	0	0	0	0	0	0	0	0	0	0	0	0	0	0	0	0	0	0	0	0	0	0	0	0	0	0	0	0	0	0	0	0	0	0	0	0	0	0
296	0	0	0	0	0	0	7.5196	7.3287	0	0	0	0	0	0	0	0	0	0	0	0	0	0	0	0	0	0	0	0	0	0	0	0	0	0	0	0	0	0	0	0	0	0	0	0	0	0	0	0	0	0	0	0	0
298	0	0	0	0	0	0	14.836	9.6369	3.5075	0	0	0	0	0	0	0	0	0	0	0	0	0	0	0	0	0	0	0	0	0	0	0	0	0	0	0	0	0	0	0	0	0	0	0	0	0	0	0	0	0	0	0	0
300	0	0	0	0	0	7.741	19.5074	11.8778	6.9173	0	0	0	0	0	0	0	0	0	0	0	0	0	0	0	0	0	0	0	0	0	0	0	0	0	0	0	0	0	0	0	0	0	0	0	0	0	0	0	0	0	0	0	0
302	0	0	0	0	0	15.5131	21.9837	17.4075	10.3945	0	0	0	0	0	0	0	0	0	0	0	0	0	0	0	0	0	0	0	0	0	0	0	0	0	0	0	0	0	0	0	0	0	0	0	0	0	0	0	0	0	0	0	0
304	0	0	0	0	0	23.3164	24.4685	22.958	13.884	3.8809	0	0	0	0	0	0	0	0	0	0	0	0	0	0	0	0	0	0	0	0	0	0	0	0	0	0	0	0	0	0	0	0	0	0	0	0	0	0	0	0	0	0	0
306	0	0	0	0	0	31.1355	30.1723	27.4678	17.3771	7.7718	0	0	0	0	0	0	0	0	0	0	0	0	0	0	0	0	0	0	0	0	0	0	0	0	0	0	0	0	0	0	0	0	0	0	0	0	0	0	0	0	0	0	0
308	0	0	0	0	7.1882	38.9585	35.8741	30.9252	21.8305	11.6671	0	0	0	0	0	0	0	0	0	0	0	0	0	0	0	0	0	0	0	0	0	0	0	0	0	0	0	0	0	0	0	0	0	0	0	0	0	0	0	0	0	0	0
310	0	0	0	0	12.5475	36.2544	41.586	34.388	26.2912	15.5685	4.235	0	0	0	0	0	0	0	0	0	0	0	0	0	0	0	0	0	0	0	0	0	0	0	0	0	0	0	0	0	0	0	0	0	0	0	0	0	0	0	0	0	0
312	0	0	0	0	6.7874	37.9392	47.0227	38.5744	30.2545	19.3588	8.4259	0	0	0	0	0	0	0	0	0	0	0	0	0	0	0	0	0	0	0	0	0	0	0	0	0	0	0	0	0	0	0	0	0	0	0	0	0	0	0	0	0	0
314	0	0	0	0	9.4731	41.1984	52.4006	42.715	33.8568	23.5949	12.5726	0	0	0	0	0	0	0	0	0	0	0	0	0	0	0	0	0	0	0	0	0	0	0	0	0	0	0	0	0	0	0	0	0	0	0	0	0	0	0	0	0	0
316	0	0	0	0	14.5814	37.7461	55.9032	46.6542	37.295	27.693	16.6199	3.9045	0	0	0	0	0	0	0	0	0	0	0	0	0	0	0	0	0	0	0	0	0	0	0	0	0	0	0	0	0	0	0	0	0	0	0	0	0	0	0	0	0
318	5.4171	0	0	0	20.2268	38.8369	60.1142	50.3489	40.9977	31.4512	20.526	7.7154	0	0	0	0	0	0	0	0	0	0	0	0	0	0	0	0	0	0	0	0	0	0	0	0	0	0	0	0	0	0	0	0	0	0	0	0	0	0	0	0	0
320	16.2756	0	0	0	22.9202	44.8132	62.4391	53.9398	44.5992	34.9527	23.0967	11.4327	0	0	0	0	0	0	0	0	0	0	0	0	0	0	0	0	0	0	0	0	0	0	0	0	0	0	0	0	0	0	0	0	0	0	0	0	0	0	0	0	0
322	14.2205	0	0	6.5138	24.2365	43.4197	60.037	62.0273	47.8762	38.1804	25.4788	14.9863	3.4759	0	0	0	0	0	0	0	0	0	0	0	0	0	0	0	0	0	0	0	0	0	0	0	0	0	0	0	0	0	0	0	0	0	0	0	0	0	0	0	0
324	9.1689	7.4722	3.9703	17.3918	28.0638	48.5388	60.2364	57.7156	51.0141	40.132	28.1632	18.4112	6.8325	0	0	0	0	0	0	0	0	0	0	0	0	0	0	0	0	0	0	0	0	0	0	0	0	0	0	0	0	0	0	0	0	0	0	0	0	0	0	0	0
326	34.8266	5.1287	4.7085	16.1013	30.9433	48.7841	56.4519	61.0207	53.9887	41.973	31.1151	20.661	10.065	0	0	0	0	0	0	0	0	0	0	0	0	0	0	0	0	0	0	0	0	0	0	0	0	0	0	0	0	0	0	0	0	0	0	0	0	0	0	0	0
328	11.1758	10.0816	7.782	19.5478	34.5093	49.3235	62.9898	58.5044	55.8074	43.6999	33.925	22.8059	13.1689	3.2109	0	0	0	0	0	0	0	0	0	0	0	0	0	0	0	0	0	0	0	0	0	0	0	0	0	0	0	0	0	0	0	0	0	0	0	0	0	0	0
330	7.5262	18.0334	9.6885	16.7185	33.6574	47.6202	57.532	60.1167	59.7905	45.3301	35.6505	25.1862	16.1471	6.2993	0	0	0	0	0	0	0	0	0	0	0	0	0	0	0	0	0	0	0	0	0	0	0	0	0	0	0	0	0	0	0	0	0	0	0	0	0	0	0
332	43.0644	22.3086	23.1236	27.1855	36.6395	54.9828	59.8114	63.0376	62.9965	46.361	36.8834	27.485	18.517	9.166	0	0	0	0	0	0	0	0	0	0	0	0	0	0	0	0	0	0	0	0	0	0	0	0	0	0	0	0	0	0	0	0	0	0	0	0	0	0	0
334	39.3587	27.1171	18.1435	21.0369	40.4865	51.4885	53.6514	57.1577	58.1173	49.694	37.9731	29.5945	20.7102	11.8437	3.0383	0	0	0	0	0	0	0	0	0	0	0	0	0	0	0	0	0	0	0	0	0	0	0	0	0	0	0	0	0	0	0	0	0	0	0	0	0	0
336	42.0012	26.2555	26.0949	36.1404	34.6899	52.6489	58.9611	58.7241	58.7543	51.5588	38.9593	31.2912	22.8369	14.347	5.8889	0	0	0	0	0	0	0	0	0	0	0	0	0	0	0	0	0	0	0	0	0	0	0	0	0	0	0	0	0	0	0	0	0	0	0	0	0	0
338	36.4419	28.3228	26.6151	30.7403	40.0658	47.8906	51.7687	55.8201	56.8195	55.1784	39.8486	32.8549	24.8972	16.8688	8.5606	0	0	0	0	0	0	0	0	0	0	0	0	0	0	0	0	0	0	0	0	0	0	0	0	0	0	0	0	0	0	0	0	0	0	0	0	0	0
340	54.4948	28.9016	28.5115	35.9848	42.299	49.6369	57.9697	54.311	56.8098	53.8211	43.3033	34.2564	26.7806	19.2012	11.0501	3.2486	0	0	0	0	0	0	0	0	0	0	0	0	0	0	0	0	0	0	0	0	0	0	0	0	0	0	0	0	0	0	0	0	0	0	0	0	0
342	51.4807	30.9602	33.4849	42.9782	40.74	48.6237	53.1992	57.1097	56.7088	49.8672	46.304	35.6896	28.8153	21.4027	13.4303	6.3177	0	0	0	0	0	0	0	0	0	0	0	0	0	0	0	0	0	0	0	0	0	0	0	0	0	0	0	0	0	0	0	0	0	0	0	0	0
344	53.1516	51.719	31.7833	35.6497	46.926	50.3812	56.1187	54.2157	57.2108	52.6837	46.8678	36.9864	30.6914	23.3919	16.9975	9.2069	0	0	0	0	0	0	0	0	0	0	0	0	0	0	0	0	0	0	0	0	0	0	0	0	0	0	0	0	0	0	0	0	0	0	0	0	0
346	64.2992	38.0481	38.7743	42.6738	45.0495	48.9439	56.5107	55.0421	56.2831	51.4688	48.6698	37.4218	32.494	25.2947	20.3867	11.9475	3.2792	0	0	0	0	0	0	0	0	0	0	0	0	0	0	0	0	0	0	0	0	0	0	0	0	0	0	0	0	0	0	0	0	0	0	0	0
348	64.7903	54.3366	44.6269	43.506	52.5607	52.6815	54.7234	54.8415	56.7748	55.0349	50.3324	45.6898	34.2437	28.3983	23.2038	14.5628	6.3955	0	0	0	0	0	0	0	0	0	0	0	0	0	0	0	0	0	0	0	0	0	0	0	0	0	0	0	0	0	0	0	0	0	0	0	0
350	74.2229	58.6525	44.7075	46.2644	43.4859	57.4301	59.1993	55.3358	59.5292	54.3532	49.1865	45.33	35.8621	31.311	25.4377	17.3057	9.3486	2.5281	0	0	0	0	0	0	0	0	0	0	0	0	0	0	0	0	0	0	0	0	0	0	0	0	0	0	0	0	0	0	0	0	0	0	0
352	67.7313	61.909	49.6395	51.262	50.3538	56.0841	62.2731	57.1866	60.1336	53.8896	53.4591	47.199	42.379	34.0398	27.5286	19.8893	12.1409	4.3868	0.0262	0	0	0	0	0	0	0	0	0	0	0	0	0	0	0	0	0	0	0	0	0	0	0	0	0	0	0	0	0	0	0	0	0	0
354	76.4454	66.0941	55.0564	49.9265	55.0691	59.3425	56.8525	56.7848	58.4708	57.2793	53.4364	51.1177	45.6828	36.5789	29.7332	22.3106	15.9332	9.5562	3.6706	0	0	0	0	0	0	0	0	0	0	0	0	0	0	0	0	0	0	0	0	0	0	0	0	0	0	0	0	0	0	0	0	0	0
356	68.9292	63.8939	55.5846	54.4705	52.2995	61.0534	59.8636	62.2769	60.162	60.3234	57.8046	54.3618	49.5415	39.0621	33.015	26.9224	20.6548	14.4863	7.4258	1.9839	0	0	0	0	0	0	0	0	0	0	0	0	0	0	0	0	0	0	0	0	0	0	0	0	0	0	0	0	0	0	0	0	0
358	84.7919	71.8942	64.0193	57.1784	59.9192	58.293	63.0108	59.3558	60.0622	58.7168	56.1484	55.6153	53.0845	45.1753	37.3321	31.3905	25.1216	19.2297	13.3808	6.108	2.033	0	0	0	0	0	0	0	0	0	0	0	0	0	0	0	0	0	0	0	0	0	0	0	0	0	0	0	0	0	0	0	0
360	81.7742	77.1516	63.7909	64.638	61.524	60.9572	61.7732	61.9433	62.3308	59.0076	61.5168	59.1716	55.1068	47.7421	41.4312	35.5501	29.3756	23.7543	18.2527	10.7603	3.0378	0	0	0	0	0	0	0	0	0	0	0	0	0	0	0	0	0	0	0	0	0	0	0	0	0	0	0	0	0	0	0	0
362	99.9002	82.033	64.4342	68.572	59.2939	71.4431	67.5904	62.5639	66.6551	64.7519	62.6185	61.2971	58.7105	54.155	45.632	39.7293	33.7861	28.5474	23.0574	14.8384	7.7356	0.567	0	0	0	0	0	0	0	0	0	0	0	0	0	0	0	0	0	0	0	0	0	0	0	0	0	0	0	0	0	0	0
364	100.7795	87.0434	82.2771	66.5777	72.2196	71.1595	69.3406	68.2771	69.3972	70.0778	68.9962	66.307	62.5271	58.7106	53.9416	43.7615	38.0456	33.7512	27.7045	21.0565	11.7917	4.6482	0	0	0	0	0	0	0	0	0	0	0	0	0	0	0	0	0	0	0	0	0	0	0	0	0	0	0	0	0	0	0
366	107.0427	90.0079	87.8206	76.4878	74.5015	72.837	69.1843	69.8423	73.3592	71.6005	71.0303	68.6997	68.2775	63.237	56.3539	47.686	42.7504	38.8093	32.2204	24.9754	15.1527	7.9259	1.3737	0	0	0	0	0	0	0	0	0	0	0	0	0	0	0	0	0	0	0	0	0	0	0	0	0	0	0	0	0	0
368	111.3859	98.3128	97.5235	84.724	84.788	80.7408	78.0686	75.3771	72.9339	74.0295	71.6937	76.8865	73.6741	67.9647	62.2844	51.514	47.6114	43.1334	36.3973	28.7896	20.4968	11.1048	4.1626	0	0	0	0	0	0	0	0	0	0	0	0	0	0	0	0	0	0	0	0	0	0	0	0	0	0	0	0	0	0
370	121.4055	111.5458	91.0523	89.5925	85.1516	82.6304	77.2361	74.2103	78.2038	77.2067	77.9345	76.2285	78.6658	72.1129	68.0193	60.6043	52.3126	47.3149	40.0053	32.4816	24.9253	15.1908	7.483	0	0	0	0	0	0	0	0	0	0	0	0	0	0	0	0	0	0	0	0	0	0	0	0	0	0	0	0	0	0
372	151.4376	117.0798	100.934	98.9612	93.3972	85.6993	86.1886	81.2164	82.4671	83.1759	83.6954	83.4053	83.1059	82.1223	74.3492	68.7462	57.1463	51.1861	43.7135	37.8805	30.218	19.8348	10.7904	4.0049	0	0	0	0	0	0	0	0	0	0	0	0	0	0	0	0	0	0	0	0	0	0	0	0	0	0	0	0	0
374	162.4653	124.3363	115.7964	103.7991	101.0796	97.8487	85.2472	87.9668	87.3377	86.8794	88.4309	86.8974	89.597	86.7507	81.6169	73.7743	61.8746	56.4052	50.6191	44.7958	35.4021	25.3873	14.1218	6.249	0	0	0	0	0	0	0	0	0	0	0	0	0	0	0	0	0	0	0	0	0	0	0	0	0	0	0	0	0
376	152.868	144.5189	125.2409	110.1352	110.4305	101.0748	90.1412	91.3809	89.6495	93.0051	94.3065	91.6639	94.3761	92.8988	87.1884	81.1803	71.7877	63.0876	57.3307	50.3035	40.4425	29.9057	19.1848	9.4239	1.2008	0	0	0	0	0	0	0	0	0	0	0	0	0	0	0	0	0	0	0	0	0	0	0	0	0	0	0	0
378	169.5742	155.2667	134.7114	122.9827	112.6737	108.6672	101.3478	95.216	99.0818	96.8568	99.4497	103.4031	101.3033	99.6009	94.3042	86.4194	77.2897	69.5508	63.8291	55.6319	45.3248	35.3611	23.8633	13.3176	7.3141	0	0	0	0	0	0	0	0	0	0	0	0	0	0	0	0	0	0	0	0	0	0	0	0	0	0	0	0
380	202.1975	158.9447	153.1899	123.716	120.6435	108.2331	107.6992	104.6577	103.8513	106.0493	105.2335	109.1669	105.5789	107.0474	101.2856	94.8804	85.5536	75.8428	68.9572	60.5727	50.0792	40.6784	28.9566	17.3083	8.5771	0.3032	0	0	0	0	0	0	0	0	0	0	0	0	0	0	0	0	0	0	0	0	0	0	0	0	0	0	0
382	199.0539	166.5784	147.7388	135.901	130.8015	118.1535	112.13	108.6791	106.6923	106.7239	109.0966	115.4401	114.7203	112.1614	111.8362	103.4282	93.1721	82.338	74.2807	65.4321	56.5136	46.0665	34.1127	21.6984	12.0781	4.4146	0	0	0	0	0	0	0	0	0	0	0	0	0	0	0	0	0	0	0	0	0	0	0	0	0	0	0
384	196.9461	184.027	155.742	142.4629	138.1306	127.0474	120.1505	114.3753	113.6672	115.0609	116.6449	119.4506	119.9224	118.4125	116.0267	109.3346	99.4079	91.3546	79.5148	70.2101	62.8449	51.3679	39.0364	28.0906	16.0104	8.271	0	0	0	0	0	0	0	0	0	0	0	0	0	0	0	0	0	0	0	0	0	0	0	0	0	0	0
386	206.7143	178.3772	163.2612	151.4848	139.1921	132.9268	121.7043	117.665	115.6534	121.0903	123.757	127.0496	126.8256	125.4519	122.9596	117.4637	110.5235	101.0958	84.9763	76.7473	68.8277	56.7938	44.0441	31.7542	20.5692	11.4134	2.9628	0	0	0	0	0	0	0	0	0	0	0	0	0	0	0	0	0	0	0	0	0	0	0	0	0	0
388	225.9588	209.1196	177.2286	159.4152	150.7456	136.5898	128.0526	123.5768	120.8696	123.2991	126.4442	132.1726	135.9725	131.1692	130.5094	124.4284	115.0024	105.6286	90.73	83.5423	74.5372	62.0886	49.1935	36.5827	24.3563	15.1445	5.8692	0	0	0	0	0	0	0	0	0	0	0	0	0	0	0	0	0	0	0	0	0	0	0	0	0	0
390	234.3214	214.9909	185.1255	173.4382	153.127	145.3987	136.2463	129.7336	128.3852	132.3407	136.2941	144.0754	142.7168	143.6031	138.0538	130.0255	122.099	113.6112	102.2206	90.3349	80.2441	67.3806	54.3402	42.176	31.1603	18.3252	10.229	0.4914	0	0	0	0	0	0	0	0	0	0	0	0	0	0	0	0	0	0	0	0	0	0	0	0	0
392	261.1247	222.7269	211.0616	174.5289	165.7322	151.0035	140.416	134.0314	134.3973	131.5496	137.566	146.3402	148.5787	149.0292	146.7945	138.6753	134.4808	123.5254	111.3825	96.5437	85.1113	72.2352	60.0438	47.6075	34.1308	21.4799	12.6186	4.3474	0	0	0	0	0	0	0	0	0	0	0	0	0	0	0	0	0	0	0	0	0	0	0	0	0
394	270.6369	231.1963	205.6982	189.5009	177.6497	158.5538	146.5446	140.3526	137.6533	142.9457	142.1365	152.3509	153.4779	157.542	153.7895	148.0885	137.8982	131.0966	119.4315	102.6676	90.8638	78.8955	66.425	52.9675	40.2699	29.0865	17.1918	9.311	0	0	0	0	0	0	0	0	0	0	0	0	0	0	0	0	0	0	0	0	0	0	0	0	0
396	273.5544	246.7484	220.8914	193.7734	180.3299	168.1295	157.23	145.3764	144.7308	145.8516	152.884	159.6054	163.8555	166.8553	160.0058	156.3321	149.369	137.9963	126.4068	112.1773	97.6363	85.5997	72.523	58.3463	44.6759	33.5284	20.3606	11.2197	3.2478	0	0	0	0	0	0	0	0	0	0	0	0	0	0	0	0	0	0	0	0	0	0	0	0
398	295.1129	258.1786	233.2559	199.4403	191.2456	176.492	160.9973	155.0508	148.5278	151.5645	156.5551	165.5266	173.7989	172.4555	169.85	166.1542	156.9292	148.7469	133.3399	122.0101	104.5034	92.0614	78.6822	63.7702	50.8323	37.3443	25.2042	14.2651	7.1159	0	0	0	0	0	0	0	0	0	0	0	0	0	0	0	0	0	0	0	0	0	0	0	0
400	291.5554	266.3107	243.3086	205.0047	197.7948	184.3208	168.5149	154.7122	157.6558	159.1393	165.1732	171.6959	177.0444	178.4766	179.8676	170.0205	164.2574	157.2699	141.496	132.6402	111.3246	98.3205	84.1559	69.7542	56.9482	44.2422	30.0978	18.367	11.0805	2.0863	0	0	0	0	0	0	0	0	0	0	0	0	0	0	0	0	0	0	0	0	0	0	0
402	315.1093	286.9595	254.9754	221.1803	211.4126	194.1265	175.7738	164.5269	159.7566	164.3606	169.3905	177.5502	185.6623	189.1398	187.2279	183.3764	174.684	166.7871	153.811	139.8533	120.0595	104.3576	89.4382	76.7566	62.9151	48.8086	35.7507	22.4162	13.4667	6.5044	0	0	0	0	0	0	0	0	0	0	0	0	0	0	0	0	0	0	0	0	0	0	0
404	324.1124	291.734	253.8744	225.6298	214.196	200.6479	184.1789	170.5671	167.0656	169.6035	174.6707	186.3036	192.4212	195.286	194.5735	189.9596	184.9047	173.6195	163.3319	149.9904	132.4394	110.3294	95.8748	83.6865	68.8197	53.925	40.404	27.2439	16.6799	10.6412	0.3291	0	0	0	0	0	0	0	0	0	0	0	0	0	0	0	0	0	0	0	0	0	0
406	341.3756	301.3606	262.6846	247.537	222.7454	207.091	189.9127	178.2843	174.1467	174.0872	185.7587	188.7409	198.0993	202.4674	201.0438	198.1698	189.4774	184.1584	169.4917	158.9756	140.2784	116.454	103.0385	89.7004	74.5241	59.0978	46.1893	32.0464	21.2924	12.4103	3.4872	0	0	0	0	0	0	0	0	0	0	0	0	0	0	0	0	0	0	0	0	0	0
408	363.8706	326.9188	280.6572	252.9132	231.8729	212.0637	200.1166	183.6859	184.4141	182.385	192.1683	198.3482	204.3095	207.6411	210.2572	206.4519	200.4044	195.3155	183.546	167.191	150.6645	131.4253	110.3628	95.8542	79.7867	64.3568	49.325	36.7487	23.2092	15.9706	8.2387	0	0	0	0	0	0	0	0	0	0	0	0	0	0	0	0	0	0	0	0	0	0
410	349.6411	317.7541	296.0801	268.346	250.4118	227.4433	205.3244	192.8062	186.8647	188.6921	193.9485	203.0694	213.2076	213.2756	219.453	216.4556	211.5644	201.8616	192.7695	177.1896	160.1777	140.4587	117.6689	101.4299	85.0351	70.5355	55.0099	41.1954	29.3988	18.1043	11.2717	2.5365	0	0	0	0	0	0	0	0	0	0	0	0	0	0	0	0	0	0	0	0	0
412	400.0581	346.2677	308.7638	282.2964	250.9265	228.545	212.9909	197.0923	194.6364	190.8655	198.0835	212.6792	220.9347	224.3606	227.0356	227.8714	219.9501	210.5531	204.7399	185.1843	168.765	151.2451	124.9663	107.6688	92.1509	77.6367	60.6841	47.6775	34.2228	22.3712	14.6688	6.318	0	0	0	0	0	0	0	0	0	0	0	0	0	0	0	0	0	0	0	0	0
414	416.9368	335.2304	312.9555	284.7596	266.7604	238.9118	216.6747	204.5065	198.3462	199.4234	203.4089	217.2057	224.235	231.6335	234.575	232.5466	228.153	221.7374	210.1354	196.058	175.8475	158.688	135.1886	114.8421	99.2499	83.2711	66.3441	51.1188	36.9244	25.1124	16.9924	9.5259	0.4164	0	0	0	0	0	0	0	0	0	0	0	0	0	0	0	0	0	0	0	0
416	391.7298	371.9082	321.4233	289.726	273.3141	248.7265	228.181	207.7193	204.4353	204.8969	208.7919	220.2398	228.3008	234.2683	243.5741	243.1027	237.4566	231.8081	219.9523	206.2777	186.2914	169.4535	144.6667	122.2766	106.5748	89.0937	72.1539	55.3135	41.2687	29.644	19.8045	12.3568	4.7331	0	0	0	0	0	0	0	0	0	0	0	0	0	0	0	0	0	0	0	0
418	407.5896	367.3203	336.4497	309.2763	277.6776	260.5588	230.8988	216.6623	211.8954	205.9279	216.3309	225.9903	234.8444	242.708	247.0254	248.6508	243.0641	237.6004	228.9989	215.2588	196.9232	177.1833	153.3798	130.0229	112.71	95.1441	78.2736	60.9924	46.3076	33.7719	23.6686	15.3825	7.7882	0	0	0	0	0	0	0	0	0	0	0	0	0	0	0	0	0	0	0	0
420	420.3701	398.7388	338.7776	310.1422	282.5191	265.723	243.696	223.0431	215.5619	215.2509	219.6692	230.4324	241.2245	246.602	253.8819	257.5448	258.7354	250.784	240.619	225.0954	206.8854	185.4891	164.3392	137.8198	119.0057	101.4751	84.291	66.7076	51.5529	38.5694	26.6099	16.4797	11.1096	2.5305	0	0	0	0	0	0	0	0	0	0	0	0	0	0	0	0	0	0	0
422	415.2165	382.9992	354.2849	326.0572	301.6941	277.5212	247.366	225.3294	223.1696	220.7535	227.1819	238.3412	246.2667	252.7063	261.5915	264.5849	263.1027	253.7001	246.6872	231.1469	214.2029	194.1627	170.7501	147.6313	125.4939	107.8732	89.8418	72.4766	55.1752	41.7771	30.5807	19.8496	13.6577	6.291	0	0	0	0	0	0	0	0	0	0	0	0	0	0	0	0	0	0	0
424	447.654	385.0701	360.1518	330.4107	307.8275	275.9058	256.8917	238.012	228.7003	227.2669	231.3708	238.7039	250.4082	258.7008	266.1869	271.4261	272.3692	265.1144	257.9645	241.5128	224.1149	203.2426	177.8559	155.4154	132.0258	113.7855	95.4298	78.2848	60.4093	45.5449	33.5357	23.1443	15.6428	8.3025	0.6388	0	0	0	0	0	0	0	0	0	0	0	0	0	0	0	0	0	0
426	444.6934	414.9764	374.8382	334.7597	316.2002	290.9227	263.6858	244.7363	232.23	228.4037	234.3458	245.6768	255.9074	268.1965	270.8914	276.934	280.4848	275.5576	267.9699	251.164	232.4189	211.3021	185.8132	162.9654	138.8265	119.665	101.4846	83.7394	65.7849	50.6192	38.2362	26.972	18.9036	11.7686	3.9961	0	0	0	0	0	0	0	0	0	0	0	0	0	0	0	0	0	0
428	471.3392	425.2096	383.208	357.746	322.4919	299.3601	270.4938	249.0831	238.5298	234.9105	237.108	247.4605	262.251	266.1971	279.8052	284.6611	285.6979	282.6628	272.4575	261.0791	240.3624	218.0163	195.0375	173.3228	148.9407	125.8015	107.7698	88.3239	71.3271	55.6809	41.6083	30.0152	20.9268	14.6087	6.8807	0	0	0	0	0	0	0	0	0	0	0	0	0	0	0	0	0	0
430	485.5805	423.4881	400.2587	365.575	338.3268	304.177	278.3977	254.829	242.1694	238.8442	243.7668	251.7559	264.1427	272.7529	285.3211	290.2164	293.1805	292.8927	283.501	272.0666	250.6224	228.8015	202.2655	178.5096	155.5804	132.0104	113.0599	92.9622	76.9377	60.3804	45.358	33.7733	23.7324	16.3554	9.8185	1.5351	0	0	0	0	0	0	0	0	0	0	0	0	0	0	0	0	0
432	480.5132	458.1094	391.1984	371.8041	338.9386	308.277	282.8978	261.4135	247.9851	240.2927	249.8881	255.8983	268.5371	279.4782	289.486	296.9527	302.0492	297.9675	292.5916	274.275	255.7516	236.8595	209.2825	183.8528	162.3005	138.1396	117.7432	98.6316	82.2446	65.0656	48.6577	36.6643	26.8628	18.9025	13.2055	5.5461	0	0	0	0	0	0	0	0	0	0	0	0	0	0	0	0	0
434	471.9141	430.4257	402.1093	378.4661	342.6432	313.6814	290.2023	260.3256	252.4519	247.6915	253.1756	260.8637	271.731	283.4373	294.6597	303.2723	308.3672	305.0491	298.6281	284.4761	265.0445	240.4715	217.1758	192.4156	171.3908	149.0815	122.4714	104.3583	87.0392	69.7987	53.7524	40.5312	30.4866	22.1658	15.4548	9.1917	0	0	0	0	0	0	0	0	0	0	0	0	0	0	0	0	0
436	494.4638	452.9134	416.2313	383.6292	354.0379	326.645	294.9273	269.4536	256.748	249.5717	249.7624	263.0342	274.9876	284.9305	296.988	308.2276	312.2481	315.1037	303.484	286.0914	272.323	249.8495	225.1211	198.1398	179.8585	153.0496	127.4083	109.7139	91.9993	74.6751	57.0217	43.4703	34.3691	23.3973	16.5886	11.0974	3.7743	0	0	0	0	0	0	0	0	0	0	0	0	0	0	0	0
438	474.5315	443.085	434.9084	393.7263	365.0501	321.3876	298.1411	274.7173	258.8133	253.3133	255.1854	261.3645	276.4962	290.1305	298.4224	308.0852	315.675	316.144	311.4006	297.3245	281.2667	260.2688	232.5102	204.4992	183.829	158.4806	132.5699	114.6756	96.509	78.7564	60.8404	47.9199	36.6327	26.6679	19.0697	13.3649	6.4158	0	0	0	0	0	0	0	0	0	0	0	0	0	0	0	0
440	486.7139	463.5713	420.3151	394.181	359.4221	334.1963	308.6939	282.1739	265.1166	259.4337	259.9969	271.397	282.478	287.1391	306.046	316.4199	321.9551	324.4931	320.458	303.0611	288.9327	265.286	238.0039	213.1264	188.3377	167.3219	141.1607	118.746	100.4408	82.0944	64.7122	50.8493	39.0831	29.7446	21.237	15.8093	9.3129	2.6252	0	0	0	0	0	0	0	0	0	0	0	0	0	0	0
442	492.3731	464.4119	439.8941	400.9491	367.4266	333.0709	302.3593	285.2644	266.0257	261.0906	261.4511	269.1959	276.1353	291.6559	304.7261	319.9482	324.9692	328.801	321.2217	312.7574	294.5732	268.4683	243.4975	219.6744	194.7259	172.3222	146.7932	122.7718	104.3421	84.4474	68.5841	53.7733	42.4274	32.4271	24.0569	16.7447	11.817	5.5077	0	0	0	0	0	0	0	0	0	0	0	0	0	0	0
