Description	E1-25.5 (clean blank)																																																				
EEM type	"Dilution- & Scatter-corrected, Calibrated Data (ppb QSE)"																																																				
Scan date	1/19/2012 13:27																																																				
Excitation	240-500nm by 5nm																																																				
Emission	290-600nm by 2nm																																																				
Calibration	Michael_Fluoromax4_April08 (07-Apr-2008)																																																				
Slit settings	"5nm Excitation, 5nm Emission"																																																				
Dilution	4																																																				
Row 1	Excitation(nm)																																																				
Col 1	Emission(nm)																																																				
Data	Fluorescence(ppb QSE)																																																				
																																																					
	240	245	250	255	260	265	270	275	280	285	290	295	300	305	310	315	320	325	330	335	340	345	350	355	360	365	370	375	380	385	390	395	400	405	410	415	420	425	430	435	440	445	450	455	460	465	470	475	480	485	490	495	500
290	0	0	0	0	0	0	0	0	0	0	0	0	0	0	0	0	0	0	0	0	0	0	0	0	0	0	0	0	0	0	0	0	0	0	0	0	0	0	0	0	0	0	0	0	0	0	0	0	0	0	0	0	0
292	0	0	0	0	0	0	0	0.3733	0	0	0	0	0	0	0	0	0	0	0	0	0	0	0	0	0	0	0	0	0	0	0	0	0	0	0	0	0	0	0	0	0	0	0	0	0	0	0	0	0	0	0	0	0
294	0	0	0	0	0	0	0	0.7384	0	0	0	0	0	0	0	0	0	0	0	0	0	0	0	0	0	0	0	0	0	0	0	0	0	0	0	0	0	0	0	0	0	0	0	0	0	0	0	0	0	0	0	0	0
296	0	0	0	0	0	0	1.1225	1.094	0	0	0	0	0	0	0	0	0	0	0	0	0	0	0	0	0	0	0	0	0	0	0	0	0	0	0	0	0	0	0	0	0	0	0	0	0	0	0	0	0	0	0	0	0
298	0	0	0	0	0	0	2.2146	1.4386	0.6382	0	0	0	0	0	0	0	0	0	0	0	0	0	0	0	0	0	0	0	0	0	0	0	0	0	0	0	0	0	0	0	0	0	0	0	0	0	0	0	0	0	0	0	0
300	0	0	0	0	0	1.1556	2.9119	1.7731	1.2586	0	0	0	0	0	0	0	0	0	0	0	0	0	0	0	0	0	0	0	0	0	0	0	0	0	0	0	0	0	0	0	0	0	0	0	0	0	0	0	0	0	0	0	0
302	0	0	0	0	0	2.3157	3.2815	2.934	1.8913	0	0	0	0	0	0	0	0	0	0	0	0	0	0	0	0	0	0	0	0	0	0	0	0	0	0	0	0	0	0	0	0	0	0	0	0	0	0	0	0	0	0	0	0
304	0.6131	0	0	0	0	3.4804	3.6524	4.0995	2.5262	0.822	0	0	0	0	0	0	0	0	0	0	0	0	0	0	0	0	0	0	0	0	0	0	0	0	0	0	0	0	0	0	0	0	0	0	0	0	0	0	0	0	0	0	0
306	0	0	0	0	1.2189	4.6474	4.8493	4.9983	3.1619	1.6463	0	0	0	0	0	0	0	0	0	0	0	0	0	0	0	0	0	0	0	0	0	0	0	0	0	0	0	0	0	0	0	0	0	0	0	0	0	0	0	0	0	0	0
308	1.9158	0	0	0	1.1828	5.815	6.0468	5.6276	4.3132	2.4716	0	0	0	0	0	0	0	0	0	0	0	0	0	0	0	0	0	0	0	0	0	0	0	0	0	0	0	0	0	0	0	0	0	0	0	0	0	0	0	0	0	0	0
310	0	0	0	0	2.6447	6.1117	7.2467	6.2579	5.4667	3.2982	1.0233	0	0	0	0	0	0	0	0	0	0	0	0	0	0	0	0	0	0	0	0	0	0	0	0	0	0	0	0	0	0	0	0	0	0	0	0	0	0	0	0	0	0
312	0.5143	0	0	0	3.1625	7.5654	8.3979	7.3555	6.4111	4.1015	2.0362	0	0	0	0	0	0	0	0	0	0	0	0	0	0	0	0	0	0	0	0	0	0	0	0	0	0	0	0	0	0	0	0	0	0	0	0	0	0	0	0	0	0
314	2.0718	0	0	0	3.4028	7.9035	9.537	8.4416	7.1749	5.3591	3.0387	0	0	0	0	0	0	0	0	0	0	0	0	0	0	0	0	0	0	0	0	0	0	0	0	0	0	0	0	0	0	0	0	0	0	0	0	0	0	0	0	0	0
316	0	0.7112	0.2942	1.8153	4.6851	7.7926	10.5055	9.4845	7.904	6.5817	4.0173	1.0223	0	0	0	0	0	0	0	0	0	0	0	0	0	0	0	0	0	0	0	0	0	0	0	0	0	0	0	0	0	0	0	0	0	0	0	0	0	0	0	0	0
318	4.1129	0	1.3554	2.2224	5.4626	9.0903	10.976	10.473	9.034	7.6053	4.962	2.0203	0	0	0	0	0	0	0	0	0	0	0	0	0	0	0	0	0	0	0	0	0	0	0	0	0	0	0	0	0	0	0	0	0	0	0	0	0	0	0	0	0
320	5.5621	1.208	2.641	3.356	6.7051	10.3821	11.6267	11.4349	10.1345	8.4528	5.805	2.9941	0	0	0	0	0	0	0	0	0	0	0	0	0	0	0	0	0	0	0	0	0	0	0	0	0	0	0	0	0	0	0	0	0	0	0	0	0	0	0	0	0
322	8.4455	1.8267	1.3586	6.0677	8.1744	10.1503	13.059	13.1214	11.1534	9.2342	6.5951	3.9252	1.0343	0	0	0	0	0	0	0	0	0	0	0	0	0	0	0	0	0	0	0	0	0	0	0	0	0	0	0	0	0	0	0	0	0	0	0	0	0	0	0	0
324	7.4597	4.7102	4.9195	6.1922	8.2812	11.2098	12.7015	12.8209	12.1317	9.9118	7.3797	4.8228	2.0334	0	0	0	0	0	0	0	0	0	0	0	0	0	0	0	0	0	0	0	0	0	0	0	0	0	0	0	0	0	0	0	0	0	0	0	0	0	0	0	0
326	11.4918	4.2221	5.4701	7.1951	9.9977	12.2394	13.0878	14.8959	13.0632	10.5553	8.1541	5.764	2.9958	0	0	0	0	0	0	0	0	0	0	0	0	0	0	0	0	0	0	0	0	0	0	0	0	0	0	0	0	0	0	0	0	0	0	0	0	0	0	0	0
328	12.6232	6.1966	6.2244	6.972	10.0051	11.6128	13.4298	15.0609	14.327	11.1636	8.8913	6.6649	3.9203	1.0022	0	0	0	0	0	0	0	0	0	0	0	0	0	0	0	0	0	0	0	0	0	0	0	0	0	0	0	0	0	0	0	0	0	0	0	0	0	0	0
330	12.292	8.0407	7.2401	8.5904	10.4852	12.4079	13.5708	15.1848	14.8619	11.7411	9.6681	7.5018	4.8075	1.9664	0	0	0	0	0	0	0	0	0	0	0	0	0	0	0	0	0	0	0	0	0	0	0	0	0	0	0	0	0	0	0	0	0	0	0	0	0	0	0
332	16.0087	10.4646	8.2558	8.9087	10.4349	13.5533	13.4853	15.1491	15.6259	12.1558	10.2964	8.1874	5.5204	2.8616	0.3179	0	0	0	0	0	0	0	0	0	0	0	0	0	0	0	0	0	0	0	0	0	0	0	0	0	0	0	0	0	0	0	0	0	0	0	0	0	0
334	15.3967	8.8681	9.047	9.0958	11.3119	13.721	13.9084	15.2962	14.6523	14.0037	10.8678	8.8166	6.1803	3.6981	1.2019	0	0	0	0	0	0	0	0	0	0	0	0	0	0	0	0	0	0	0	0	0	0	0	0	0	0	0	0	0	0	0	0	0	0	0	0	0	0
336	15.7769	11.6159	10.8055	11.0187	11.6494	14.4777	15.2711	15.4459	15.4719	14.4509	11.3938	9.3289	6.8378	4.4803	2.0311	0.0669	0	0	0	0	0	0	0	0	0	0	0	0	0	0	0	0	0	0	0	0	0	0	0	0	0	0	0	0	0	0	0	0	0	0	0	0	0
338	16.1618	10.8909	10.7404	9.5733	11.7288	13.3424	14.461	14.4585	15.7681	14.5681	11.8771	9.8013	7.4914	5.1648	2.8082	0.4557	0	0	0	0	0	0	0	0	0	0	0	0	0	0	0	0	0	0	0	0	0	0	0	0	0	0	0	0	0	0	0	0	0	0	0	0	0
340	19.2914	12.8681	11.0681	11.5723	11.9996	13.6445	14.7611	15.0402	15.8243	14.7548	12.4845	10.2249	8.0898	5.7968	3.5319	1.4864	0	0	0	0	0	0	0	0	0	0	0	0	0	0	0	0	0	0	0	0	0	0	0	0	0	0	0	0	0	0	0	0	0	0	0	0	0
342	22.7363	12.4317	11.8008	12.4502	12.4168	13.9933	15.9087	15.08	15.9073	14.0242	12.8802	10.6578	8.6369	6.4178	4.225	2.462	0.4706	0	0	0	0	0	0	0	0	0	0	0	0	0	0	0	0	0	0	0	0	0	0	0	0	0	0	0	0	0	0	0	0	0	0	0	0
344	20.1534	15.8389	11.1769	13.0767	13.3927	14.5805	15.1347	16.0589	15.2894	15.2695	13.4155	11.0497	9.14	7.0006	5.1103	3.38	1.5977	0	0	0	0	0	0	0	0	0	0	0	0	0	0	0	0	0	0	0	0	0	0	0	0	0	0	0	0	0	0	0	0	0	0	0	0
346	20.1745	15.0012	14.6136	13.9055	14.1262	14.0155	14.9341	15.3974	16.0366	15.2866	13.7411	11.292	9.6243	7.5584	5.9524	4.2515	2.4254	0.5374	0	0	0	0	0	0	0	0	0	0	0	0	0	0	0	0	0	0	0	0	0	0	0	0	0	0	0	0	0	0	0	0	0	0	0
348	24.7767	16.6193	14.3783	14.185	13.6338	14.6933	16.2435	15.8002	15.2	15.0997	14.6462	12.3458	10.0955	8.3215	6.749	5.0839	3.214	1.5177	0	0	0	0	0	0	0	0	0	0	0	0	0	0	0	0	0	0	0	0	0	0	0	0	0	0	0	0	0	0	0	0	0	0	0
350	27.6515	18.3909	16.8116	13.5788	14.8776	15.2387	15.2739	15.4652	15.8429	15.1963	14.5398	12.9145	10.5303	9.036	7.4875	5.7814	3.9594	2.0925	0.7826	0	0	0	0	0	0	0	0	0	0	0	0	0	0	0	0	0	0	0	0	0	0	0	0	0	0	0	0	0	0	0	0	0	0
352	25.5829	19.8227	16.8042	14.9153	15.3006	15.2654	14.9056	16.5546	16.2122	16.1199	15.6211	13.8353	11.4683	9.704	8.18	6.4369	4.6625	2.8889	1.4471	0	0	0	0	0	0	0	0	0	0	0	0	0	0	0	0	0	0	0	0	0	0	0	0	0	0	0	0	0	0	0	0	0	0
354	26.4027	21.1212	18.3131	15.9615	15.8462	15.8776	16.232	16.6806	16.6663	16.3445	15.7682	13.8899	12.5598	10.3236	8.7428	7.0493	5.5191	3.9642	2.2801	0.7802	0	0	0	0	0	0	0	0	0	0	0	0	0	0	0	0	0	0	0	0	0	0	0	0	0	0	0	0	0	0	0	0	0
356	28.1957	19.6709	18.7088	17.036	16.6587	16.9584	17.065	16.6754	17.0268	16.6809	15.5407	14.7596	13.2467	10.9325	9.4856	8.0286	6.5419	4.9937	3.2673	1.4665	0.3045	0	0	0	0	0	0	0	0	0	0	0	0	0	0	0	0	0	0	0	0	0	0	0	0	0	0	0	0	0	0	0	0
358	27.6198	24.0334	18.8013	17.2537	16.9083	17.3743	17.246	17.2451	17.2043	16.8962	16.1353	15.5849	14.1823	12.1385	10.4043	8.9828	7.5469	5.989	4.3576	2.302	1.1089	0	0	0	0	0	0	0	0	0	0	0	0	0	0	0	0	0	0	0	0	0	0	0	0	0	0	0	0	0	0	0	0
360	31.2194	24.0002	20.9902	18.5866	18.5713	17.1455	17.3817	17.7808	18.0499	18.1767	16.813	15.9489	15.0399	13.2791	11.2744	9.9005	8.5024	6.9367	5.293	3.3899	1.6641	0.203	0	0	0	0	0	0	0	0	0	0	0	0	0	0	0	0	0	0	0	0	0	0	0	0	0	0	0	0	0	0	0
362	31.021	26.4263	22.0733	20.2749	18.5457	19.1907	18.3476	18.066	17.7155	17.9254	17.589	16.8067	15.477	14.3656	12.1814	10.8511	9.4326	7.9329	6.2266	4.065	2.3441	0.8351	0	0	0	0	0	0	0	0	0	0	0	0	0	0	0	0	0	0	0	0	0	0	0	0	0	0	0	0	0	0	0
364	36.4165	26.4727	24.2892	20.0262	20.0657	19.2271	19.4294	18.6286	18.8782	18.8452	18.2002	17.3733	16.828	15.1533	13.4436	11.7675	10.33	8.9755	7.1287	5.1289	3.1338	1.5902	0	0	0	0	0	0	0	0	0	0	0	0	0	0	0	0	0	0	0	0	0	0	0	0	0	0	0	0	0	0	0
366	37.343	28.0028	26.332	22.4252	19.897	19.9196	20.1391	19.9425	18.958	19.3142	19.3134	18.5344	17.8801	16.4183	14.3737	12.6602	11.283	9.9898	8.006	6.0388	3.8298	2.3014	0.9387	0	0	0	0	0	0	0	0	0	0	0	0	0	0	0	0	0	0	0	0	0	0	0	0	0	0	0	0	0	0
368	35.6901	30.6463	27.7101	25.3114	22.197	20.0417	21.4177	20.4402	20.4246	20.1571	19.7582	19.5247	18.9163	17.3765	15.8125	13.5318	12.2518	10.821	8.8641	6.9246	4.9214	2.9404	1.4811	0	0	0	0	0	0	0	0	0	0	0	0	0	0	0	0	0	0	0	0	0	0	0	0	0	0	0	0	0	0
370	37.4301	32.4558	28.4953	25.862	23.3853	22.1378	21.0776	20.9245	20.8377	20.7415	20.948	20.007	19.5439	18.7785	17.5117	14.7638	13.1876	11.6237	9.6999	7.782	5.8593	3.781	2.0944	0.3957	0	0	0	0	0	0	0	0	0	0	0	0	0	0	0	0	0	0	0	0	0	0	0	0	0	0	0	0	0
372	45.0036	33.1611	31.8274	26.2118	25.5615	23.5256	21.6677	21.8153	21.8668	21.9168	21.4085	21.5375	20.9526	19.9886	17.7866	16.235	14.1631	12.4679	10.5612	8.9358	6.9495	4.7496	2.771	1.165	0	0	0	0	0	0	0	0	0	0	0	0	0	0	0	0	0	0	0	0	0	0	0	0	0	0	0	0	0
374	45.8085	37.5559	32.3775	28.4739	27.176	25.7076	23.8064	23.4249	22.9512	22.8002	22.9062	22.4212	22.5373	21.5125	19.5872	17.9938	15.1169	13.5775	11.9632	10.3435	8.0173	5.5627	3.3276	1.7564	0.0275	0	0	0	0	0	0	0	0	0	0	0	0	0	0	0	0	0	0	0	0	0	0	0	0	0	0	0	0
376	46.3791	39.8861	35.4516	31.1828	28.3873	25.347	24.3384	24.2592	23.8201	23.8896	23.7272	24.0648	23.1417	22.5475	21.2604	19.2335	16.6641	14.9286	13.3243	11.4388	9.0549	6.5901	4.175	2.3912	0.7618	0	0	0	0	0	0	0	0	0	0	0	0	0	0	0	0	0	0	0	0	0	0	0	0	0	0	0	0
378	49.1662	42.3314	36.9429	32.5619	30.6483	27.0477	26.1693	24.7907	24.9013	24.944	25.2437	25.5721	24.9301	24.4688	22.3907	20.804	18.2476	16.233	14.6405	12.4969	10.0593	7.6216	5.1631	2.9879	1.4842	0	0	0	0	0	0	0	0	0	0	0	0	0	0	0	0	0	0	0	0	0	0	0	0	0	0	0	0
380	54.3729	46.5636	38.5947	33.7472	32.3221	28.4036	27.2965	26.0258	26.2804	26.3444	26.4855	26.944	25.9948	25.756	24.1373	22.0299	20.1762	17.5026	15.653	13.493	11.0372	8.6267	6.0877	3.7488	2.2504	0.5391	0	0	0	0	0	0	0	0	0	0	0	0	0	0	0	0	0	0	0	0	0	0	0	0	0	0	0
382	51.9795	48.2079	42.1634	36.6242	32.7832	30.5082	28.8096	27.4854	26.9669	27.6481	28.1242	28.0907	27.7838	26.948	25.475	23.8532	21.6029	18.8229	16.7129	14.4942	12.1398	9.6494	7.0507	4.7557	2.6682	1.4205	0	0	0	0	0	0	0	0	0	0	0	0	0	0	0	0	0	0	0	0	0	0	0	0	0	0	0
384	57.4635	49.8311	42.4015	39.5148	35.1447	30.8524	29.7725	28.9492	27.9625	28.3247	28.9391	28.9524	28.9719	28.6921	26.7505	24.7828	22.7558	19.9036	17.755	15.4787	13.2245	10.6556	8.0065	5.6369	3.5844	2.0568	0.1365	0	0	0	0	0	0	0	0	0	0	0	0	0	0	0	0	0	0	0	0	0	0	0	0	0	0
386	61.9116	51.7757	44.289	38.7344	36.3222	34.1099	30.3382	29.5709	29.6232	29.0952	29.6283	30.6101	30.3366	29.5074	28.7629	26.7532	24.1377	21.5033	18.8496	16.6045	14.3058	11.6889	8.9803	6.5089	4.3848	2.5596	1.0132	0	0	0	0	0	0	0	0	0	0	0	0	0	0	0	0	0	0	0	0	0	0	0	0	0	0
388	61.9147	56.7115	46.1947	42.3346	37.952	34.1797	32.3365	30.9899	30.3255	30.4732	31.135	32.0779	31.7399	31.0684	29.9522	27.864	25.3059	23.429	20.0097	17.7874	15.3969	12.7205	9.9833	7.4342	5.2508	3.3717	1.6079	0	0	0	0	0	0	0	0	0	0	0	0	0	0	0	0	0	0	0	0	0	0	0	0	0	0
390	67.0867	58.4169	48.7536	44.4554	39.7098	36.8234	33.5632	31.2246	31.3117	31.0871	32.2034	33.2134	33.5154	32.2826	31.5413	29.8343	26.9907	24.5854	21.2937	18.9699	16.4876	13.7518	10.9859	8.4049	6.3059	4.0243	2.3959	0.7331	0	0	0	0	0	0	0	0	0	0	0	0	0	0	0	0	0	0	0	0	0	0	0	0	0
392	70.4873	60.3516	53.7105	45.4796	41.5022	38.357	34.8669	33.1678	32.2122	32.0796	33.2117	34.5326	34.5591	34.0959	32.5893	31.1583	28.5916	26.0149	23.0043	20.0313	17.4314	14.6942	11.9761	9.4509	7.1476	4.7124	2.8074	1.3107	0	0.021	0.0247	0	0	0	0	0	0	0	0	0	0	0	0	0	0	0	0	0	0	0	0	0	0
394	70.3197	62.8781	55.3725	48.6	43.0036	39.6356	36.1818	33.3901	33.2862	34.069	34.4769	35.0071	35.5462	35.5048	34.7085	32.7866	29.8119	27.7227	24.6362	21.078	18.4241	15.7456	13.0448	10.4833	8.1059	5.7754	3.6888	2.0899	0.4858	0.0625	0.049	0	0	0	0	0	0	0	0	0	0	0	0	0	0	0	0	0	0	0	0	0	0
396	73.7487	66.73	58.0035	50.933	45.0531	40.5945	37.1766	35.3985	34.1257	34.7672	35.0945	36.5964	37.2065	37.0196	35.7127	33.6328	31.7939	28.4809	26.425	22.8343	19.4951	16.8089	14.1858	11.5198	8.9861	6.8294	4.5004	2.7742	1.1554	0.1037	0.0731	0	0	0	0	0	0	0	0	0	0	0	0	0	0	0	0	0	0	0	0	0	0
398	78.5597	67.4349	60.7208	51.9751	47.0549	41.9366	39.165	36.3777	35.7513	35.4332	36.622	38.1978	38.9192	37.8966	37.5861	35.7645	33.434	30.5906	27.3992	24.5369	20.5872	17.9558	15.3394	12.5656	10.0968	7.5956	5.4255	3.2626	1.8631	0.1447	0.0486	0	0	0	0	0	0	0	0	0	0	0	0	0	0	0	0	0	0	0	0	0	0
400	78.4682	67.6978	62.4471	55.3821	48.9416	45.2613	40.6025	37.8843	36.9373	36.97	38.4857	39.5174	40.1004	40.6311	39.5572	37.1086	35.2827	32.0966	29.0609	26.1546	21.6719	19.1283	16.3956	13.6798	11.2002	8.5584	6.2718	3.8511	2.5728	0.8626	0.0242	0	0	0	0	0	0	0	0	0	0	0	0	0	0	0	0	0	0	0	0	0	0
402	84.5598	74.6962	65.5076	56.2353	51.5473	46.5773	41.2653	39.2717	38.5253	38.7051	39.1294	40.5126	41.6995	42.0888	41.5555	38.9375	36.9448	34.0454	30.5978	28.022	24.1761	20.258	17.4146	14.9115	12.2752	9.6308	7.3133	4.8628	3.1052	1.6898	0	0.0099	0.0117	0	0	0	0	0	0	0	0	0	0	0	0	0	0	0	0	0	0	0	0
404	89.545	77.7017	68.5011	59.6158	52.6639	48.4434	44.3795	40.6638	39.6553	39.7885	39.3902	41.9563	42.6045	42.7616	42.7727	41.3051	38.4594	35.7568	32.4736	29.5297	25.5595	21.3756	18.5759	16.1305	13.3391	10.6299	8.1471	5.6011	3.7513	2.3243	0.562	0.0296	0.0233	0	0	0	0	0	0	0	0	0	0	0	0	0	0	0	0	0	0	0	0
406	88.0017	80.1141	68.2611	62.1647	55.8905	50.3908	44.2616	42.1832	40.8531	40.8206	41.0928	43.2231	44.4135	44.4037	44.2071	42.1277	39.5623	37.4271	33.9476	30.9394	27.275	22.5233	19.8383	17.2159	14.3944	11.6404	9.1743	6.3563	4.3325	2.8482	1.2387	0.0492	0.0349	0	0	0	0	0	0	0	0	0	0	0	0	0	0	0	0	0	0	0	0
408	94.9592	81.1581	73.6779	65.568	57.8256	52.8618	46.6026	43.5666	42.587	42.4365	42.9704	44.3459	45.323	46.3702	45.1002	44.256	41.7936	38.7662	35.5339	32.4814	28.662	24.877	21.1322	18.3285	15.4233	12.668	9.9905	7.3609	5.0641	3.4771	1.9448	0.0687	0.0232	0	0	0	0	0	0	0	0	0	0	0	0	0	0	0	0	0	0	0	0
410	93.6768	84.8253	76.3171	67.4346	59.9073	54.0824	48.2648	44.8551	43.4798	42.2947	43.1928	44.8459	46.4221	47.2285	47.5442	45.7254	43.7105	40.7639	37.3048	34.2445	30.7476	26.1656	22.423	19.389	16.4496	13.7749	10.9499	8.2638	5.842	3.8973	2.4478	0.8695	0.0116	0	0	0	0	0	0	0	0	0	0	0	0	0	0	0	0	0	0	0	0
412	96.5265	88.602	77.7063	68.129	62.2698	55.6091	50.2636	45.7467	44.9704	43.5698	44.3579	46.3705	47.3296	48.7695	48.3445	46.9709	45.2361	41.8943	39.1159	35.6074	32.2866	28.4631	23.7125	20.5074	17.6391	14.9621	11.9075	9.5086	6.7008	4.6757	3.1278	1.6258	0	0.0334	0.0393	0	0	0	0	0	0	0	0	0	0	0	0	0	0	0	0	0	0
414	101.0107	89.5646	80.4172	71.4277	63.1321	55.7677	51.264	46.9808	44.9255	44.7791	45.976	46.8211	48.3567	49.2923	49.2618	48.2891	46.2236	43.4393	40.4804	37.2257	33.7925	29.5208	25.4715	21.7065	18.8259	15.913	12.8628	10.1049	7.4522	5.3216	3.6513	2.246	0.589	0.1	0.0784	0	0	0	0	0	0	0	0	0	0	0	0	0	0	0	0	0	0
416	104.0007	93.2073	83.2706	73.6182	65.4005	59.4108	52.5619	48.9643	45.9248	45.6373	46.4869	47.8511	50.212	50.7583	50.9247	49.6276	48.0817	45.3945	42.6006	38.8009	35.5231	31.6112	27.0646	22.9552	20.0556	16.9	13.8473	10.8151	8.3914	6.1454	4.3124	2.8213	1.4463	0.1668	0.1177	0	0	0	0	0	0	0	0	0	0	0	0	0	0	0	0	0	0
418	105.468	96.3846	83.5854	74.4506	66.0875	61.3199	54.2544	50.8856	47.6976	47.0481	47.5315	48.5956	51.0254	51.9939	52.3174	51.1675	49.7372	46.6481	43.7127	40.6389	36.3919	32.8278	28.9272	24.2618	21.1006	17.9297	14.9532	11.841	9.3131	7.0864	4.7622	3.3962	1.9316	0.2343	0.0787	0	0	0	0	0	0	0	0	0	0	0	0	0	0	0	0	0	0
420	111.9208	97.6439	86.9471	76.7771	69.1975	61.7954	56.0419	50.505	48.1162	47.2903	47.9199	50.7208	51.3044	52.5669	53.3452	51.8976	50.4392	48.0239	45.5466	42.1235	38.1392	33.8537	30.4259	25.5769	22.2387	19.1382	16.0748	12.8735	10.1531	7.7453	5.4101	3.7822	2.6588	1.0977	0.0395	0	0	0	0	0	0	0	0	0	0	0	0	0	0	0	0	0	0
422	110.6434	100.1794	91.0293	79.4459	72.0036	64.6578	56.9087	52.2206	48.8716	48.9327	49.1689	50.6922	53.024	54.2417	54.0645	53.9039	52.1273	50.0616	47.47	43.372	39.8675	35.724	31.837	27.3445	23.4767	20.3595	17.052	13.9159	10.8169	8.3698	6.3485	4.3616	3.0969	1.7417	0	0.0593	0.0695	0	0	0	0	0	0	0	0	0	0	0	0	0	0	0	0
424	107.0421	100.3555	91.1059	80.4397	72.1728	64.8531	59.135	52.9117	50.528	49.3002	50.2514	51.6141	53.3974	55.2218	55.0775	54.2281	53.3814	51.0644	48.1822	44.889	41.6441	37.0765	32.7564	28.535	24.7233	21.4328	18.0359	14.9655	11.7452	9.1718	7.0657	4.9441	3.6854	2.2277	0.7289	0.1786	0.1395	0	0	0	0	0	0	0	0	0	0	0	0	0	0	0	0
426	110.809	100.6031	93.2421	82.5407	72.5294	67.3324	59.403	54.9062	51.071	50.8628	50.8811	52.3436	53.4151	55.2181	55.7536	55.8466	54.6381	52.6043	49.6591	46.5344	43.2212	38.6659	34.371	30.3541	26.0206	22.4711	19.1316	15.9502	12.7003	10.1748	7.6559	5.6516	4.0225	2.86	1.3613	0.299	0.2102	0.0159	0	0	0	0	0	0	0	0	0	0	0	0	0	0	0
428	118.2013	105.0291	94.5393	86.0703	75.3679	67.5321	61.1415	55.1011	52.1591	51.0455	51.2503	52.3792	54.5432	56.0264	56.8427	56.6908	55.8304	52.9078	50.8244	48.0276	43.8491	39.961	35.4484	31.4867	27.7015	23.5571	20.2703	16.7741	13.6866	10.8382	8.4846	6.2766	4.6636	3.3645	2.0045	0.4214	0.1783	0.0321	0	0	0	0	0	0	0	0	0	0	0	0	0	0	0
430	117.631	105.0417	94.8183	85.7415	77.6005	69.9659	63.1123	56.6385	53.2135	52.1675	51.7703	53.3799	55.7407	56.6425	58.1862	57.7139	56.6622	55.4707	52.8965	49.5561	45.5563	41.9197	36.6993	32.9644	28.7318	24.6558	21.2243	17.6077	14.6852	11.7031	9.1822	7.1562	5.1934	3.6459	2.517	1.0993	0.1459	0.0484	0	0	0	0	0	0	0	0	0	0	0	0	0	0	0
432	114.9871	107.7673	96.1969	86.6182	80.6842	71.3323	62.8482	57.3216	54.7437	52.5677	52.8465	53.304	55.9612	57.0052	57.8334	58.6405	57.7326	56.2416	53.6141	50.4747	46.8885	42.6075	38.1595	33.5563	29.9629	25.7389	22.0652	18.6162	15.6383	12.5649	10.0119	7.5758	5.765	4.2334	3.0875	1.7201	0.113	0.1142	0.0766	0	0	0	0	0	0	0	0	0	0	0	0	0	0
434	121.7353	108.8226	97.9246	87.39	81.1235	71.9805	64.5135	58.2834	54.7231	52.6422	53.4129	54.4202	55.6008	57.4199	58.8835	59.5926	58.2864	56.6563	54.4966	51.6688	47.5909	43.7228	39.2007	34.8395	31.302	27.0302	22.9141	19.6348	16.5199	13.4354	10.6112	8.1601	6.3851	4.7144	3.5424	2.1864	0.77	0.2303	0.154	0	0	0	0	0	0	0	0	0	0	0	0	0	0
436	120.8239	109.6721	99.7618	87.6625	81.4566	72.9703	65.7778	59.0266	54.9667	53.633	54.2374	54.6659	56.3084	57.603	59.5478	59.4563	58.8718	58.014	55.6472	52.1932	48.7972	45.2138	40.0025	35.7812	32.1255	28.2876	23.8017	20.6086	17.4326	14.3331	11.1742	8.9265	7.1264	5.253	3.9899	2.6858	1.2987	0.348	0.2324	0.021	0	0	0	0	0	0	0	0	0	0	0	0	0
438	125.0186	112.595	101.1857	91.3274	82.2199	74.0524	66.3155	59.9997	56.148	54.573	53.7338	53.3739	57.2057	58.1353	59.3704	59.9784	59.9167	58.4657	56.9632	54.149	49.7981	46.5326	41.3571	37.2339	32.9863	29.5354	24.7309	21.5013	18.222	15.023	11.9113	9.766	7.694	6.0325	4.4424	3.1806	1.7394	0.4677	0.2058	0.0423	0	0	0	0	0	0	0	0	0	0	0	0	0
440	121.7224	113.2376	104.5856	91.4855	84.765	75.7493	68.4376	60.0964	57.1147	54.3938	54.7079	55.9479	57.2884	58.5	59.8087	60.3219	60.2518	59.654	57.557	54.3189	51.1081	46.7289	42.3261	37.6369	34.289	30.4036	25.964	22.1672	18.8627	15.6023	12.6587	10.279	8.2859	6.4885	4.8905	3.5217	2.4114	0.9909	0.1788	0.064	0	0	0	0	0	0	0	0	0	0	0	0	0
442	126.8372	113.6816	101.9922	91.4106	84.0459	75.6632	68.4502	62.0919	58.2143	54.799	53.9898	55.9652	56.4631	59.0493	59.8421	60.7728	60.644	60.2788	58.1224	55.4084	52.3849	47.673	43.8072	38.7589	34.9737	31.3188	26.7219	22.8234	19.4961	16.0961	13.4061	10.8777	8.8043	7.1554	5.306	4.1652	2.7482	1.637	0.1512	0.143	0.091	0	0	0	0	0	0	0	0	0	0	0	0
444	118.3566	112.7524	100.7796	92.5602	85.9337	77.1465	68.3308	61.7787	58.0252	54.7093	54.5983	56.0093	56.6743	58.5372	60.4719	60.5697	61.21	60.8464	58.879	56.2255	52.8145	48.9473	44.0157	39.8195	36.1702	31.8288	28.351	23.4867	20.0564	16.5954	14.1628	11.4677	9.4179	7.338	5.8501	4.5232	3.392	2.1495	0.8416	0.2806	0.1831	0	0	0	0	0	0	0	0	0	0	0	0
