Description	Scan series EEM_1.prn through EEM_53.prn																																																				
EEM type	"Dilution- & Scatter-corrected, Calibrated Data (ppb QSE)"																																																				
Scan date	1/19/2012 13:32																																																				
Excitation	240-500nm by 5nm																																																				
Emission	290-600nm by 2nm																																																				
Calibration	Michael_Fluoromax4_April08 (07-Apr-2008)																																																				
Slit settings	"5nm Excitation, 5nm Emission"																																																				
Dilution	25																																																				
Row 1	Excitation(nm)																																																				
Col 1	Emission(nm)																																																				
Data	Fluorescence(ppb QSE)																																																				
																																																					
	240	245	250	255	260	265	270	275	280	285	290	295	300	305	310	315	320	325	330	335	340	345	350	355	360	365	370	375	380	385	390	395	400	405	410	415	420	425	430	435	440	445	450	455	460	465	470	475	480	485	490	495	500
290	0	0	0	0	0	0	0	0	0	0	0	0	0	0	0	0	0	0	0	0	0	0	0	0	0	0	0	0	0	0	0	0	0	0	0	0	0	0	0	0	0	0	0	0	0	0	0	0	0	0	0	0	0
292	0	0	0	0	0	0	0	0.7302	0	0	0	0	0	0	0	0	0	0	0	0	0	0	0	0	0	0	0	0	0	0	0	0	0	0	0	0	0	0	0	0	0	0	0	0	0	0	0	0	0	0	0	0	0
294	0	0	0	0	0	0	0	1.4446	0	0	0	0	0	0	0	0	0	0	0	0	0	0	0	0	0	0	0	0	0	0	0	0	0	0	0	0	0	0	0	0	0	0	0	0	0	0	0	0	0	0	0	0	0
296	0	0	0	0	0	0	2.1958	2.1401	0	0	0	0	0	0	0	0	0	0	0	0	0	0	0	0	0	0	0	0	0	0	0	0	0	0	0	0	0	0	0	0	0	0	0	0	0	0	0	0	0	0	0	0	0
298	0	0	0	0	0	0	4.3311	2.8139	1.5679	0	0	0	0	0	0	0	0	0	0	0	0	0	0	0	0	0	0	0	0	0	0	0	0	0	0	0	0	0	0	0	0	0	0	0	0	0	0	0	0	0	0	0	0
300	0	0	0	0	0	2.2604	5.6938	3.4679	3.0919	0	0	0	0	0	0	0	0	0	0	0	0	0	0	0	0	0	0	0	0	0	0	0	0	0	0	0	0	0	0	0	0	0	0	0	0	0	0	0	0	0	0	0	0
302	0	0	0	0	0	4.5286	6.416	6.672	4.6456	0	0	0	0	0	0	0	0	0	0	0	0	0	0	0	0	0	0	0	0	0	0	0	0	0	0	0	0	0	0	0	0	0	0	0	0	0	0	0	0	0	0	0	0
304	0	0	0	0	0	6.8046	7.1405	9.8874	6.2045	2.3343	0	0	0	0	0	0	0	0	0	0	0	0	0	0	0	0	0	0	0	0	0	0	0	0	0	0	0	0	0	0	0	0	0	0	0	0	0	0	0	0	0	0	0
306	0	0	0	0	0	9.0838	10.4403	12.27	7.7648	4.6742	0	0	0	0	0	0	0	0	0	0	0	0	0	0	0	0	0	0	0	0	0	0	0	0	0	0	0	0	0	0	0	0	0	0	0	0	0	0	0	0	0	0	0
308	0	0	0	0	0	11.3629	13.7416	13.8131	11.5135	7.0163	0	0	0	0	0	0	0	0	0	0	0	0	0	0	0	0	0	0	0	0	0	0	0	0	0	0	0	0	0	0	0	0	0	0	0	0	0	0	0	0	0	0	0
310	0	0	0	0	0	11.7348	17.0479	15.3582	15.2682	9.3618	3.022	0	0	0	0	0	0	0	0	0	0	0	0	0	0	0	0	0	0	0	0	0	0	0	0	0	0	0	0	0	0	0	0	0	0	0	0	0	0	0	0	0	0
312	0	0	0	0	0	11.8573	20.2365	18.9567	18.1872	11.64	6.0121	0	0	0	0	0	0	0	0	0	0	0	0	0	0	0	0	0	0	0	0	0	0	0	0	0	0	0	0	0	0	0	0	0	0	0	0	0	0	0	0	0	0
314	0	0	0	0	0	18.4376	23.3905	22.5163	20.3511	15.5359	8.9703	0	0	0	0	0	0	0	0	0	0	0	0	0	0	0	0	0	0	0	0	0	0	0	0	0	0	0	0	0	0	0	0	0	0	0	0	0	0	0	0	0	0
316	0	0	0	0	0	15.8666	28.8821	25.9507	22.4162	19.3256	11.8572	2.9657	0	0	0	0	0	0	0	0	0	0	0	0	0	0	0	0	0	0	0	0	0	0	0	0	0	0	0	0	0	0	0	0	0	0	0	0	0	0	0	0	0
318	3.9595	0	0	0	8.5401	24.7307	33.0287	29.2236	25.9316	22.4334	14.6431	5.8601	0	0	0	0	0	0	0	0	0	0	0	0	0	0	0	0	0	0	0	0	0	0	0	0	0	0	0	0	0	0	0	0	0	0	0	0	0	0	0	0	0
320	7.5224	0	0	0	9.2272	27.1497	34.5136	32.409	29.3549	24.9296	16.9794	8.683	0	0	0	0	0	0	0	0	0	0	0	0	0	0	0	0	0	0	0	0	0	0	0	0	0	0	0	0	0	0	0	0	0	0	0	0	0	0	0	0	0
322	14.2497	0	0	3.6746	9.2129	18.534	36.3964	34.1266	32.5342	27.2304	19.1641	11.3815	3.095	0	0	0	0	0	0	0	0	0	0	0	0	0	0	0	0	0	0	0	0	0	0	0	0	0	0	0	0	0	0	0	0	0	0	0	0	0	0	0	0
324	10.6596	5.7734	0	10.1784	17.1331	31.5395	36.8655	36.4429	35.5868	29.087	21.3852	13.9819	6.0836	0	0	0	0	0	0	0	0	0	0	0	0	0	0	0	0	0	0	0	0	0	0	0	0	0	0	0	0	0	0	0	0	0	0	0	0	0	0	0	0
326	48.1252	0	0	9.2191	20.8068	28.0472	38.3047	46.1371	38.4955	30.8479	23.6258	16.9746	8.9616	0	0	0	0	0	0	0	0	0	0	0	0	0	0	0	0	0	0	0	0	0	0	0	0	0	0	0	0	0	0	0	0	0	0	0	0	0	0	0	0
328	21.4144	4.1246	10.0865	4.0465	24.6679	31.1274	38.1167	44.7408	42.8148	32.5102	25.7584	19.8397	11.7251	3.0805	0	0	0	0	0	0	0	0	0	0	0	0	0	0	0	0	0	0	0	0	0	0	0	0	0	0	0	0	0	0	0	0	0	0	0	0	0	0	0
330	18.5158	20.6547	8.4705	14.2648	23.8149	33.493	40.8197	49.0664	44.5839	34.0864	28.2505	22.4232	14.3765	6.0435	0	0	0	0	0	0	0	0	0	0	0	0	0	0	0	0	0	0	0	0	0	0	0	0	0	0	0	0	0	0	0	0	0	0	0	0	0	0	0
332	46.4741	24.7918	14.1783	16.7584	23.7576	41.377	37.8728	50.3338	51.8888	35.1951	30.2979	24.4695	17.1159	8.7937	0	0	0	0	0	0	0	0	0	0	0	0	0	0	0	0	0	0	0	0	0	0	0	0	0	0	0	0	0	0	0	0	0	0	0	0	0	0	0
334	42.6746	19.2872	18.0423	22.0337	28.4026	36.9874	41.3605	44.328	47.7433	47.3566	32.1657	26.3473	19.659	11.3627	3.1176	0	0	0	0	0	0	0	0	0	0	0	0	0	0	0	0	0	0	0	0	0	0	0	0	0	0	0	0	0	0	0	0	0	0	0	0	0	0
336	47.8987	30.8489	20.4431	29.5335	30.8625	41.0286	40.2329	46.1915	47.0509	43.3313	33.8884	28.4341	21.9089	13.7642	6.0426	0	0	0	0	0	0	0	0	0	0	0	0	0	0	0	0	0	0	0	0	0	0	0	0	0	0	0	0	0	0	0	0	0	0	0	0	0	0
338	44.0372	34.5278	25.0378	20.609	33.7291	42.5405	39.5096	45.0099	50.0764	50.2528	35.4741	30.3671	23.8854	16.7526	8.784	0	0	0	0	0	0	0	0	0	0	0	0	0	0	0	0	0	0	0	0	0	0	0	0	0	0	0	0	0	0	0	0	0	0	0	0	0	0
340	56.1151	29.1204	29.3261	31.0774	36.8791	43.2888	43.123	46.212	49.6806	47.5754	41.6993	32.12	25.6921	19.523	11.3386	3.3603	0	0	0	0	0	0	0	0	0	0	0	0	0	0	0	0	0	0	0	0	0	0	0	0	0	0	0	0	0	0	0	0	0	0	0	0	0
342	56.6496	35.951	29.0429	31.287	33.2268	41.5757	42.9041	48.6278	48.6184	46.4294	41.4278	33.8768	28.1772	21.9618	13.781	6.5348	0	0	0	0	0	0	0	0	0	0	0	0	0	0	0	0	0	0	0	0	0	0	0	0	0	0	0	0	0	0	0	0	0	0	0	0	0
344	58.6719	33.6819	30.4647	31.9577	38.8588	43.8733	46.273	48.6622	50.9726	49.4847	41.4146	35.4823	30.4798	24.0031	17.5172	9.5234	0	0	0	0	0	0	0	0	0	0	0	0	0	0	0	0	0	0	0	0	0	0	0	0	0	0	0	0	0	0	0	0	0	0	0	0	0
346	54.246	42.0268	42.7265	31.9418	38.3384	38.7403	46.5129	47.3845	48.2955	48.7427	47.2343	39.2986	32.6855	25.9556	21.0668	12.3582	3.2778	0	0	0	0	0	0	0	0	0	0	0	0	0	0	0	0	0	0	0	0	0	0	0	0	0	0	0	0	0	0	0	0	0	0	0	0
348	63.7403	56.9513	35.7081	40.1728	37.7006	44.8239	49.4416	51.0742	48.6041	52.277	46.1486	45.0986	34.8181	29.2121	24.002	15.0636	6.3927	0	0	0	0	0	0	0	0	0	0	0	0	0	0	0	0	0	0	0	0	0	0	0	0	0	0	0	0	0	0	0	0	0	0	0	0
350	72.6169	58.6519	48.9094	43.2445	40.4696	52.1598	53.9142	50.2145	55.3353	50.9237	49.7992	44.0175	36.7997	32.2692	26.3128	17.7924	9.3446	1.7826	0	0	0	0	0	0	0	0	0	0	0	0	0	0	0	0	0	0	0	0	0	0	0	0	0	0	0	0	0	0	0	0	0	0	0
352	81.4605	53.1472	49.8909	48.5205	45.004	48.4748	51.0997	52.6045	51.2116	52.8758	52.0614	46.8181	40.366	35.1339	28.4758	20.362	12.1356	3.903	0	0	0	0	0	0	0	0	0	0	0	0	0	0	0	0	0	0	0	0	0	0	0	0	0	0	0	0	0	0	0	0	0	0	0
354	81.3038	61.6227	54.9262	46.6314	50.8383	49.4532	51.1523	56.4113	57.8851	53.9005	55.6111	48.6618	43.7653	37.8003	30.6539	22.7695	15.8227	9.1221	3.492	0	0	0	0	0	0	0	0	0	0	0	0	0	0	0	0	0	0	0	0	0	0	0	0	0	0	0	0	0	0	0	0	0	0
356	75.1098	65.5268	49.8957	57.9677	54.7684	52.6003	58.3471	58.6993	57.6889	57.2856	55.8788	53.2345	47.9652	40.407	33.8112	27.1659	20.4692	14.0986	8.3093	0.5836	0	0	0	0	0	0	0	0	0	0	0	0	0	0	0	0	0	0	0	0	0	0	0	0	0	0	0	0	0	0	0	0	0
358	74.9627	67.0026	63.4979	59.796	58.7956	59.2198	59.4255	58.4226	58.6969	60.4886	55.5795	56.016	54.2405	46.2842	37.9122	31.4287	25.1123	18.8855	12.5683	6.1104	0.6165	0	0	0	0	0	0	0	0	0	0	0	0	0	0	0	0	0	0	0	0	0	0	0	0	0	0	0	0	0	0	0	0
360	109.8747	91.6254	67.9169	68.455	61.446	58.8525	58.8035	57.2478	62.8496	62.9108	61.5922	60.4819	57.4345	49.8357	41.8037	35.6346	29.5353	23.4521	17.6727	9.6014	2.3852	0	0	0	0	0	0	0	0	0	0	0	0	0	0	0	0	0	0	0	0	0	0	0	0	0	0	0	0	0	0	0	0
362	98.79	85.7868	81.0694	70.494	63.8153	68.6514	66.3914	66.5878	64.8745	63.8127	64.9476	63.8515	62.7332	53.3666	45.8068	39.9787	33.9774	28.4219	22.698	13.958	6.5318	0.8948	0	0	0	0	0	0	0	0	0	0	0	0	0	0	0	0	0	0	0	0	0	0	0	0	0	0	0	0	0	0	0
364	107.7656	97.198	84.5291	72.4094	75.6998	72.429	69.5306	68.5968	69.5021	69.4234	66.5771	67.4523	63.9804	58.0181	51.5483	44.1707	38.2676	34.0693	27.5592	20.2243	10.3131	3.9581	0	0	0	0	0	0	0	0	0	0	0	0	0	0	0	0	0	0	0	0	0	0	0	0	0	0	0	0	0	0	0
366	129.7069	105.9276	97.4841	84.7639	72.8396	75.5856	73.3825	67.5964	72.0962	73.3495	72.2761	70.3001	69.4004	65.6636	58.3532	48.2504	43.2698	39.5579	32.2829	24.5686	14.3186	6.9892	1.2253	0	0	0	0	0	0	0	0	0	0	0	0	0	0	0	0	0	0	0	0	0	0	0	0	0	0	0	0	0	0
368	143.119	102.8653	95.4374	87.4213	86.7248	86.9837	82.8893	76.384	76.1459	76.0783	76.2	77.0111	77.2532	69.4517	62.71	52.2294	48.5521	44.0751	36.7307	28.7958	18.3667	9.7466	3.4275	0	0	0	0	0	0	0	0	0	0	0	0	0	0	0	0	0	0	0	0	0	0	0	0	0	0	0	0	0	0
370	144.7218	123.5077	100.1496	96.7833	89.8913	85.4312	83.8265	80.1533	81.8398	81.4511	83.765	81.8138	80.0998	75.528	73.2012	63.8524	53.6623	48.4438	40.7381	32.8893	25.0117	13.6926	6.738	0	0	0	0	0	0	0	0	0	0	0	0	0	0	0	0	0	0	0	0	0	0	0	0	0	0	0	0	0	0
372	168.4398	134.3775	113.4766	108.5183	101.3122	93.1774	86.1813	84.7988	89.5423	88.1245	87.1262	88.1259	86.9848	84.4503	77.5687	72.6664	58.9016	52.6389	44.8398	38.8815	30.7285	19.7158	10.5626	3.0978	0	0	0	0	0	0	0	0	0	0	0	0	0	0	0	0	0	0	0	0	0	0	0	0	0	0	0	0	0
374	190.3441	135.0811	123.2759	113.933	105.0791	103.76	96.4904	93.7406	90.12	93.506	91.6195	92.7186	91.4632	92.5866	82.7204	78.8643	64.0276	58.4427	52.5295	46.5767	36.3287	25.3562	13.6871	6.8297	0	0	0	0	0	0	0	0	0	0	0	0	0	0	0	0	0	0	0	0	0	0	0	0	0	0	0	0	0
376	191.1354	162.4281	145.6129	122.8178	116.6348	104.8371	100.0509	99.6382	98.8067	97.7989	100.7646	101.6556	99.0277	97.7166	91.5375	83.9814	74.5272	65.8944	60.008	52.22	41.7759	31.0554	17.5928	9.9669	1.5494	0	0	0	0	0	0	0	0	0	0	0	0	0	0	0	0	0	0	0	0	0	0	0	0	0	0	0	0
378	198.4192	170.0015	154.6195	132.5791	117.5376	117.8063	110.5188	103.1778	104.0832	104.5048	105.5208	109.8114	107.7424	106.6508	100.5415	92.5612	82.6598	73.1073	67.2537	57.6786	47.0546	36.5887	23.703	12.8471	6.2323	0	0	0	0	0	0	0	0	0	0	0	0	0	0	0	0	0	0	0	0	0	0	0	0	0	0	0	0
380	207.5523	184.4318	155.8138	147.3196	134.9674	123.7998	116.2999	109.8569	108.4073	111.1413	111.9648	114.3278	114.6062	115.0468	105.0522	101.6365	90.5502	80.131	72.4938	62.877	52.1957	41.9817	28.4254	17.4064	9.4875	0.7121	0	0	0	0	0	0	0	0	0	0	0	0	0	0	0	0	0	0	0	0	0	0	0	0	0	0	0
382	236.815	198.5606	174.5135	157.381	139.7546	130.4263	122.7184	120.0782	116.4036	117.0515	121.3366	122.4201	120.6019	121.5402	116.599	108.0869	98.8301	87.3628	77.942	68.1286	59.1096	47.4498	33.7455	21.4313	11.5909	5.4136	0	0	0	0	0	0	0	0	0	0	0	0	0	0	0	0	0	0	0	0	0	0	0	0	0	0	0
384	225.0197	208.9612	178.0355	161.5855	148.1265	142.3229	134.3686	125.3757	123.4341	124.1422	125.8663	128.1977	131.7932	130.0912	126.9411	116.8841	108.2343	94.6605	83.2988	73.2928	65.9133	52.8298	39.1538	28.4101	16.4658	9.1419	0	0	0	0	0	0	0	0	0	0	0	0	0	0	0	0	0	0	0	0	0	0	0	0	0	0	0
386	258.6458	224.1305	191.1116	174.1492	154.2152	147.7118	137.5283	131.6835	130.0818	132.265	132.7183	138.8949	140.9559	136.0977	131.4322	126.0905	115.0041	103.7471	88.8953	80.3144	72.1747	58.3387	44.6412	32.9026	20.4491	12.2497	4.274	0	0	0	0	0	0	0	0	0	0	0	0	0	0	0	0	0	0	0	0	0	0	0	0	0	0
388	278.3359	229.8878	199.833	179.5477	172.8782	152.0056	148.0826	139.1388	135.2533	136.9839	138.2271	143.7595	146.5531	146.6117	142.8707	132.6532	123.0992	109.8477	94.7982	87.6054	77.9745	64.1279	50.2709	37.9753	26.2124	17.1344	7.026	0	0	0	0	0	0	0	0	0	0	0	0	0	0	0	0	0	0	0	0	0	0	0	0	0	0
390	275.5112	252.2723	219.1375	202.2875	177.3068	167.077	156.0751	145.3389	142.5476	140.2591	145.5359	153.7763	154.8824	155.733	148.1897	143.0087	132.5092	121.0463	106.554	94.8943	83.7716	69.9144	55.8978	42.8143	32.4035	18.9131	11.0965	2.3522	0	0	0	0	0	0	0	0	0	0	0	0	0	0	0	0	0	0	0	0	0	0	0	0	0
392	297.3748	260.5494	228.6997	208.8382	184.5291	172.8095	161.4218	152.4036	152.9483	149.5027	152.1526	161.1821	162.5291	164.4677	162.0962	149.7134	139.5766	127.816	115.9092	101.5691	89.1183	75.2454	61.89	48.8803	35.3783	23.5844	13.3467	6.032	0	0	0	0	0	0	0	0	0	0	0	0	0	0	0	0	0	0	0	0	0	0	0	0	0
394	313.7733	281.2491	243.6935	217.2665	200.8756	182.0485	170.1462	159.3264	153.2731	154.1815	159.127	166.9592	170.3561	170.008	169.982	160.2938	148.9825	138.3195	124.2679	108.1533	95.1573	82.0089	68.6089	54.8672	43.4323	29.0406	17.8377	9.8109	0.1645	0	0	0	0	0	0	0	0	0	0	0	0	0	0	0	0	0	0	0	0	0	0	0	0
396	314.457	297.8489	253.3798	231.2432	213.3281	193.446	176.9264	163.3873	160.5155	162.8311	163.6376	175.7877	177.8089	180.8882	174.5829	170.569	160.9422	146.617	134.4562	116.8074	102.0337	88.82	75.5047	60.8692	46.6298	34.3298	21.9703	13.2263	4.1382	0	0	0	0	0	0	0	0	0	0	0	0	0	0	0	0	0	0	0	0	0	0	0	0
398	334.9772	303.3286	276.0447	235.903	225.6654	210.3509	187.5768	173.7255	170.2591	168.3692	172.2507	182.0565	190.2635	186.2623	184.8877	181.3481	169.5785	160.0063	141.2644	127.3232	109.0108	95.8652	82.4607	66.9156	52.8824	40.4313	26.9854	15.9042	8.2768	0	0	0	0	0	0	0	0	0	0	0	0	0	0	0	0	0	0	0	0	0	0	0	0
400	388.4625	312.6141	287.5514	252.2312	234.031	216.4587	193.0058	184.6861	179.8769	175.3209	177.8934	187.9737	194.9727	199.1628	197.9545	189.8799	181.0908	169.2469	152.4242	138.4565	115.9412	102.9401	88.567	73.142	59.0939	45.9315	33.1349	19.2792	12.609	3.1564	0	0	0	0	0	0	0	0	0	0	0	0	0	0	0	0	0	0	0	0	0	0	0
402	380.8218	348.5219	307.4741	263.0687	245.5506	220.993	203.9013	192.198	183.6905	184.0532	186.2245	194.5871	203.1624	207.1013	207.1679	197.2776	191.345	178.8878	160.956	146.4867	126.6519	109.7789	94.4694	79.6298	65.152	51.0294	37.9176	24.629	15.4145	7.0306	0	0	0	0	0	0	0	0	0	0	0	0	0	0	0	0	0	0	0	0	0	0	0
404	392.1181	344.2871	309.5112	273.9635	250.2558	233.6154	214.6867	200.8859	193.9263	187.7818	196.6799	202.4364	211.7605	215.6093	212.1648	210.4257	199.1911	189.0828	172.2936	156.8251	137.6411	116.5448	100.7559	86.0497	71.1468	56.4304	41.8782	28.9952	18.3164	10.5467	1.0222	0	0	0	0	0	0	0	0	0	0	0	0	0	0	0	0	0	0	0	0	0	0
406	403.0689	367.0799	330.5945	286.6301	263.1022	243.6471	218.069	199.8582	199.5413	197.6655	204.2217	214.8276	220.2434	225	226.627	224.8932	208.1467	199.5776	181.5029	165.4343	147.6682	123.469	107.3986	92.1587	77.0102	61.8901	46.9084	33.7255	21.4618	13.9761	4.1414	0	0	0	0	0	0	0	0	0	0	0	0	0	0	0	0	0	0	0	0	0	0
408	422.4161	395.5505	338.3885	310.7162	276.062	246.7728	230.6304	213.796	208.7121	204.3904	212.1737	215.5579	228.387	233.7444	234.3406	228.4601	220.6222	209.6865	191.0976	175.8312	154.9713	133.3754	114.2118	98.4117	82.5657	67.4403	52.728	38.3157	25.2547	16.6375	8.4577	0	0	0	0	0	0	0	0	0	0	0	0	0	0	0	0	0	0	0	0	0	0
410	432.2535	391.2946	355.4407	311.1071	291.875	257.8725	241.7784	217.5186	217.7454	207.857	216.2481	225.2205	236.1292	241.3159	240.4526	239.8377	230.4871	218.8718	204.3785	187.7373	168.0369	144.9168	121.0077	104.2182	88.1064	73.8991	58.1623	44.0124	30.6752	19.2397	11.8681	2.9446	0	0	0	0	0	0	0	0	0	0	0	0	0	0	0	0	0	0	0	0	0
412	475.4211	408.2417	371.352	325.3814	294.9326	274.9377	250.2917	233.0916	215.8606	216.6688	223.9735	230.6543	242.2864	247.6534	254.4683	249.6179	241.3039	230.0483	211.7592	195.2789	178.1259	155.5289	127.796	110.7427	95.4933	81.2697	63.5865	49.5084	35.2184	23.195	14.6939	6.9895	0	0	0	0	0	0	0	0	0	0	0	0	0	0	0	0	0	0	0	0	0
414	454.1318	420.4705	370.4767	331.8309	308.7832	280.1853	252.1371	237.9993	229.7537	221.2635	230.6485	240.8627	248.3161	253.5117	261.2138	255.2165	247.43	241.2947	224.0122	203.9105	185.9954	165.3621	140.8022	118.1905	102.8629	86.6539	68.9971	52.5293	38.9486	27.3317	17.9146	10.147	1.2346	0	0	0	0	0	0	0	0	0	0	0	0	0	0	0	0	0	0	0	0
416	480.6141	441.1061	382.9357	351.9564	313.1422	288.0476	264.9985	244.7727	228.4663	227.7285	231.525	243.4505	253.4114	262.762	269.2602	267.9375	255.7713	251.4342	234.675	217.5352	194.1601	173.7858	151.204	125.9075	110.4669	92.234	74.5634	56.9963	43.0346	31.2082	21.0552	12.7063	5.9494	0	0	0	0	0	0	0	0	0	0	0	0	0	0	0	0	0	0	0	0
418	481.1478	452.9341	387.5034	354.7133	328.9681	296.1884	270.4047	258.4482	239.8756	237.5402	239.776	250.4673	260.1308	271.3312	275.732	276.9383	269.8858	259.9304	241.8693	226.9273	204.9683	183.0191	160.6389	133.9462	116.3669	98.0478	80.7634	63.1114	48.4768	35.1114	23.667	16.5631	8.2628	0	0	0	0	0	0	0	0	0	0	0	0	0	0	0	0	0	0	0	0
420	523.0234	481.2584	416.5192	370.1007	338.7758	306.5698	276.6536	261.1014	247.7228	240.047	241.5914	253.1478	263.4901	273.7258	283.9084	285.1715	279.404	267.122	253.7826	236.3296	213.1558	190.8659	170.6979	142.0376	122.7483	104.7821	87.1306	69.266	55.144	40.1491	28.3326	18.0952	11.9731	3.2388	0	0	0	0	0	0	0	0	0	0	0	0	0	0	0	0	0	0	0
422	496.2109	470.5077	417.6048	371.648	350.6791	323.683	285.6483	265.1233	247.9374	250.8055	250.871	260.6566	273.173	284.165	288.2282	291.1926	290.5396	281.3268	262.6751	248.9523	227.3106	203.0065	178.3012	153.5606	129.6476	111.5874	92.9295	75.4783	58.2815	43.672	31.4014	21.607	14.9192	7.3476	0	0	0	0	0	0	0	0	0	0	0	0	0	0	0	0	0	0	0
424	522.4471	496.9522	429.1865	390.7874	358.9345	326.7503	289.6084	271.779	258.1072	255.3932	259.646	263.5833	274.8506	281.9093	293.6583	302.3265	295.675	292.3854	274.1401	256.5215	235.0186	212.3271	185.5167	161.9596	136.5939	117.8049	98.7676	81.7331	63.4741	47.4955	35.7134	24.2753	16.8943	9.3961	1.3683	0	0	0	0	0	0	0	0	0	0	0	0	0	0	0	0	0	0
426	545.9819	489.4033	440.0606	395.123	363.5829	327.999	308.1006	277.6705	263.2009	258.3672	257.887	273.4537	280.122	289.4593	299.9181	307.0293	304.4372	295.4472	281.6192	266.0257	242.6179	220.0107	193.4793	171.3898	143.8202	123.946	105.2772	87.4439	68.8129	51.8685	39.7921	27.425	19.5053	12.5023	4.6235	0	0	0	0	0	0	0	0	0	0	0	0	0	0	0	0	0	0
428	565.0093	512.8803	450.9363	413.9974	373.3294	342.5225	307.9569	278.7133	270.6319	263.1166	263.7151	277.0161	286.4211	299.696	305.9756	315.1568	313.4805	306.4268	291.5666	275.6338	252.7317	227.6339	201.4834	180.2001	152.1841	130.354	112.0289	91.8907	74.3224	58.2293	43.5382	31.7888	21.6779	15.1454	7.3138	0	0	0	0	0	0	0	0	0	0	0	0	0	0	0	0	0	0
430	555.6154	529.1941	472.94	432.1604	390.573	343.4924	320.6175	292.8546	273.0189	266.6254	274.8528	279.4604	295.223	306.848	313.7655	319.5546	320.8437	313.0715	299.6684	281.8389	264.7453	236.5206	214.9213	187.535	163.0055	136.8379	117.3866	96.3889	79.8997	62.7388	46.863	35.9076	26.0495	17.3915	10.4007	2.8549	0	0	0	0	0	0	0	0	0	0	0	0	0	0	0	0	0
432	554.7582	500.5004	463.2803	427.1367	386.8805	357.0916	325.6484	300.7812	279.8557	276.3454	275.4754	279.7815	292.4117	304.4615	318.5848	323.0435	325.589	319.0302	311.1486	293.3154	271.8788	245.402	219.0822	192.6037	170.2812	143.2401	121.9296	102.0239	85.1183	67.2289	50.9371	38.7912	28.2044	19.1754	13.9391	6.2336	0	0.0786	0.0919	0	0	0	0	0	0	0	0	0	0	0	0	0	0
434	571.2598	521.919	487.1405	441.5134	400.5366	363.1639	325.5234	298.9099	288.6864	273.7714	277.8909	284.9545	296.7543	312.8996	321.4008	331.316	333.1652	328.268	314.6824	303.3466	280.4571	253.6666	225.4212	197.922	178.7639	151.5651	126.5156	107.7155	89.7208	71.7644	54.4787	40.4165	31.7951	22.8463	16.4161	9.9485	1.4067	0.2371	0.1847	0	0	0	0	0	0	0	0	0	0	0	0	0	0
436	556.5593	531.4138	485.9696	446.7722	412.065	361.4292	331.3781	307.5104	287.3665	280.0627	280.5313	290.4614	300.8587	312.6833	326.7228	332.4553	337.3889	329.9987	324.5012	310.4786	288.4799	263.5348	232.4753	208.9425	184.9044	161.1075	131.3135	112.9364	94.4897	76.4433	58.057	45.0948	34.9213	25.1438	17.819	12.871	4.8158	0.3978	0.2789	0	0	0	0	0	0	0	0	0	0	0	0	0	0
438	588.2918	533.5447	500.4328	450.3494	407.6994	383.3893	344.7613	313.3141	300.5637	284.1268	283.3633	291.5921	304.5678	314.7878	330.2825	338.7384	340.8301	341.6728	333.5295	316.2289	292.4706	269.0382	243.6852	215.4872	190.8263	166.0497	136.3388	117.8044	98.9911	80.6021	62.158	49.6787	39.1888	28.4597	21.172	14.3105	7.3312	0.5611	0.1873	0	0	0	0	0	0	0	0	0	0	0	0	0	0
440	610.5329	553.8359	519.59	458.6522	423.9627	384.6467	350.574	318.329	300.9581	286.5913	288.1177	292.6494	308.1545	322.6436	332.6971	345.2747	347.0241	348.517	341.0743	321.0087	304.2702	276.793	247.6848	220.1823	197.6097	175.0395	147.4551	122.0554	103.0982	84.1713	66.3166	54.2441	41.5743	32.5474	23.0871	17.1427	10.3728	2.9955	0.0944	0	0	0	0	0	0	0	0	0	0	0	0	0	0
442	604.5437	556.0904	510.1403	454.8232	424.1289	388.3876	352.5249	322.7706	303.2385	290.1064	288.2927	294.2539	307.0048	320.7752	335.916	348.9326	348.494	353.9568	344.386	331.3363	308.1402	283.7116	253.8946	227.8452	202.4444	177.5457	151.1928	126.2616	107.1751	86.8782	70.4783	55.0526	44.811	35.2444	26.3929	18.6818	13.0518	6.7975	0	0.1985	0.2297	0	0	0	0	0	0	0	0	0	0	0	0
