Description	Fen2-60																																																				
EEM type	"Dilution- & Scatter-corrected, Calibrated Data (ppb QSE)"																																																				
Scan date	10/1/2013 13:57																																																				
Excitation	240-500nm by 5nm																																																				
Emission	290-600nm by 2nm																																																				
Calibration	Michael_Fluoromax4_April08 (07-Apr-2008)																																																				
Slit settings	"5nm Excitation, 5nm Emission"																																																				
Dilution	5																																																				
Row 1	Excitation(nm)																																																				
Col 1	Emission(nm)																																																				
Data	Fluorescence(ppb QSE)																																																				
																																																					
	240	245	250	255	260	265	270	275	280	285	290	295	300	305	310	315	320	325	330	335	340	345	350	355	360	365	370	375	380	385	390	395	400	405	410	415	420	425	430	435	440	445	450	455	460	465	470	475	480	485	490	495	500
290	9.3246	4.0016	6.3813	9.4493	12.046	14.1817	16.2822	18.689	12.5979	6.4419	0	0	0	0	0	0	0	0	0	0	0	0	0	0	0	0	0	0	0	0	0	0	0	0	0	0	0	0	0	0	0	0	0	0	0	0	0	0	0	0	0	0	0
292	5.2827	2.5624	9.8841	11.1261	13.5633	15.5515	18.0079	20.7556	12.5438	6.2632	0.9318	0	0	0	0	0	0	0	0	0	0	0	0	0	0	0	0	0	0	0	0	0	0	0	0	0	0	0	0	0	0	0	0	0	0	0	0	0	0	0	0	0	0
294	11.639	8.0912	9.5226	12.7654	15.0456	17.8563	21.0661	22.7746	19.1883	5.8958	1.8436	0	0	0	0	0	0	0	0	0	0	0	0	0	0	0	0	0	0	0	0	0	0	0	0	0	0	0	0	0	0	0	0	0	0	0	0	0	0	0	0	0	0
296	11.1596	9.4525	12.203	14.3477	18.0222	21.0388	24.9408	24.7125	22.691	5.5276	2.7317	0	0	0	0	0	0	0	0	0	0	0	0	0	0	0	0	0	0	0	0	0	0	0	0	0	0	0	0	0	0	0	0	0	0	0	0	0	0	0	0	0	0
298	13.6905	9.0846	15.2212	18.9219	21.4062	24.108	28.6799	26.5599	22.5958	5.1598	1.7954	0	0	0	0	0	0	0	0	0	0	0	0	0	0	0	0	0	0	0	0	0	0	0	0	0	0	0	0	0	0	0	0	0	0	0	0	0	0	0	0	0	0
300	17.3204	12.6829	15.0652	20.0233	24.6935	28.032	31.4031	28.3473	22.4943	7.9488	0.8848	0	0	0	0	0	0	0	0	0	0	0	0	0	0	0	0	0	0	0	0	0	0	0	0	0	0	0	0	0	0	0	0	0	0	0	0	0	0	0	0	0	0
302	17.5113	17.3688	17.009	21.3002	28.3368	32.3598	33.6844	31.4688	22.7497	9.5995	0	0	0	0	0	0	0	0	0	0	0	0	0	0	0	0	0	0	0	0	0	0	0	0	0	0	0	0	0	0	0	0	0	0	0	0	0	0	0	0	0	0	0
304	23.0744	16.3075	20.3152	24.6255	29.1801	36.7115	35.9755	34.6053	23.0058	11.0758	0	0	0	0	0	0	0	0	0	0	0	0	0	0	0	0	0	0	0	0	0	0	0	0	0	0	0	0	0	0	0	0	0	0	0	0	0	0	0	0	0	0	0
306	19.0299	18.9395	17.0695	25.6667	31.867	41.0664	39.1928	36.2994	23.251	12.5516	0	0	0	0	0	0	0	0	0	0	0	0	0	0	0	0	0	0	0	0	0	0	0	0	0	0	0	0	0	0	0	0	0	0	0	0	0	0	0	0	0	0	0
308	22.492	18.488	17.7686	25.1967	33.7531	45.4182	42.4012	36.5399	25.7154	14.0248	0.2605	0	0	0	0	0	0	0	0	0	0	0	0	0	0	0	0	0	0	0	0	0	0	0	0	0	0	0	0	0	0	0	0	0	0	0	0	0	0	0	0	0	0
310	27.6515	20.2882	24.7897	27.8928	35.4029	42.837	45.619	36.7807	28.186	15.5009	3.0672	0	0	0	0	0	0	0	0	0	0	0	0	0	0	0	0	0	0	0	0	0	0	0	0	0	0	0	0	0	0	0	0	0	0	0	0	0	0	0	0	0	0
312	21.9447	31.9774	26.0684	25.5637	34.3081	45.2057	48.5483	39.0043	29.972	16.8772	5.846	0	0	0	0	0	0	0	0	0	0	0	0	0	0	0	0	0	0	0	0	0	0	0	0	0	0	0	0	0	0	0	0	0	0	0	0	0	0	0	0	0	0
314	28.2329	24.6613	24.5354	28.4318	34.603	46.0273	51.4475	41.2039	31.2363	18.276	8.5983	0	0	0	0	0	0	0	0	0	0	0	0	0	0	0	0	0	0	0	0	0	0	0	0	0	0	0	0	0	0	0	0	0	0	0	0	0	0	0	0	0	0
316	24.7495	23.9004	32.4761	30.0649	32.4167	42.6102	51.6768	43.2344	32.3773	19.594	11.2865	2.2307	0	0	0	0	0	0	0	0	0	0	0	0	0	0	0	0	0	0	0	0	0	0	0	0	0	0	0	0	0	0	0	0	0	0	0	0	0	0	0	0	0
318	37.658	27.8936	29.9484	28.9172	36.0572	42.5955	49.8384	45.0713	33.4166	21.3991	13.8825	4.4095	0	0	0	0	0	0	0	0	0	0	0	0	0	0	0	0	0	0	0	0	0	0	0	0	0	0	0	0	0	0	0	0	0	0	0	0	0	0	0	0	0
320	36.0563	29.0314	25.9287	29.6384	36.9008	40.9938	47.9519	46.8514	34.4211	23.7319	14.4871	6.5363	0	0	0	0	0	0	0	0	0	0	0	0	0	0	0	0	0	0	0	0	0	0	0	0	0	0	0	0	0	0	0	0	0	0	0	0	0	0	0	0	0
322	33.3623	30.1097	28.0571	32.9599	36.3336	39.4131	49.2933	46.0031	35.2252	25.8814	15.0025	8.571	1.8666	0	0	0	0	0	0	0	0	0	0	0	0	0	0	0	0	0	0	0	0	0	0	0	0	0	0	0	0	0	0	0	0	0	0	0	0	0	0	0	0
324	38.2392	29.1948	33.3014	35.8784	35.2945	40.7383	45.8225	44.2853	35.9811	26.1515	16.1283	10.5334	3.6701	0	0	0	0	0	0	0	0	0	0	0	0	0	0	0	0	0	0	0	0	0	0	0	0	0	0	0	0	0	0	0	0	0	0	0	0	0	0	0	0
326	36.1821	34.115	30.7361	34.5008	36.3241	41.7118	44.4556	43.3887	36.6724	26.3843	17.8241	11.4853	5.408	0	0	0	0	0	0	0	0	0	0	0	0	0	0	0	0	0	0	0	0	0	0	0	0	0	0	0	0	0	0	0	0	0	0	0	0	0	0	0	0
328	33.6073	31.1007	34.212	32.8896	36.9969	40.0668	43.1174	42.3925	36.6615	26.579	19.4392	12.39	7.0777	2.0089	0	0	0	0	0	0	0	0	0	0	0	0	0	0	0	0	0	0	0	0	0	0	0	0	0	0	0	0	0	0	0	0	0	0	0	0	0	0	0
330	33.0985	36.6213	31.008	32.4051	35.3035	39.8547	43.1094	42.541	36.3235	26.7469	20.1193	13.5511	8.6807	3.9425	0	0	0	0	0	0	0	0	0	0	0	0	0	0	0	0	0	0	0	0	0	0	0	0	0	0	0	0	0	0	0	0	0	0	0	0	0	0	0
332	37.4445	33.5616	33.1807	34.9886	36.017	39.2067	40.5118	41.2134	36.8566	26.5983	20.535	14.791	10.4247	5.7385	0.8634	0	0	0	0	0	0	0	0	0	0	0	0	0	0	0	0	0	0	0	0	0	0	0	0	0	0	0	0	0	0	0	0	0	0	0	0	0	0
334	37.2662	33.8854	35.9186	36.7662	36.7615	39.2957	38.0401	40.588	35.9237	28.2932	20.8871	15.9293	12.0457	7.4173	2.9891	0	0	0	0	0	0	0	0	0	0	0	0	0	0	0	0	0	0	0	0	0	0	0	0	0	0	0	0	0	0	0	0	0	0	0	0	0	0
336	38.1095	40.3847	37.0578	35.5639	36.5816	37.6385	39.5439	39.6676	35.6325	27.9728	21.1973	17.2747	13.5114	8.9875	4.9841	0.9741	0	0	0	0	0	0	0	0	0	0	0	0	0	0	0	0	0	0	0	0	0	0	0	0	0	0	0	0	0	0	0	0	0	0	0	0	0
338	39.709	38.9053	36.295	36.6194	38.679	37.9048	39.7861	38.9345	36.9859	29.6759	21.4686	18.5224	14.8316	11.1417	6.8544	1.9166	0.0334	0	0	0	0	0	0	0	0	0	0	0	0	0	0	0	0	0	0	0	0	0	0	0	0	0	0	0	0	0	0	0	0	0	0	0	0
340	40.2312	38.5314	37.637	38.1742	35.956	37.1494	40.1165	39.8018	36.4348	29.1925	24.0886	19.6565	16.041	13.1422	8.5967	4.5034	1.2902	0	0	0	0	0	0	0	0	0	0	0	0	0	0	0	0	0	0	0	0	0	0	0	0	0	0	0	0	0	0	0	0	0	0	0	0
342	43.8212	39.1556	40.4548	39.8525	37.5652	37.5929	39.8562	38.8704	35.8875	30.9955	25.0483	20.7901	17.8789	14.8758	10.2664	6.9561	3.216	0.4529	0	0	0	0	0	0	0	0	0	0	0	0	0	0	0	0	0	0	0	0	0	0	0	0	0	0	0	0	0	0	0	0	0	0	0
344	46.421	43.8964	38.3399	36.8693	39.116	39.3665	39.7274	38.935	36.3564	31.7059	27.179	21.828	19.5877	16.3013	12.8767	9.2643	4.997	2.5898	0	0	0	0	0	0	0	0	0	0	0	0	0	0	0	0	0	0	0	0	0	0	0	0	0	0	0	0	0	0	0	0	0	0	0
346	51.0914	44.1611	45.2628	39.5474	39.1683	37.7834	40.8655	38.2386	37.8399	32.6757	28.6072	23.6541	21.2228	17.6651	15.3596	11.4574	7.3155	3.9425	1.2768	0	0	0	0	0	0	0	0	0	0	0	0	0	0	0	0	0	0	0	0	0	0	0	0	0	0	0	0	0	0	0	0	0	0
348	49.547	48.5836	44.7593	41.4393	40.3405	40.0706	41.6562	40.7177	38.9087	34.7045	30.2993	26.2171	22.8013	19.9754	17.5446	13.5545	9.5267	6.4372	3.1051	0	0	0	0	0	0	0	0	0	0	0	0	0	0	0	0	0	0	0	0	0	0	0	0	0	0	0	0	0	0	0	0	0	0
350	53.5091	51.6442	44.1245	42.6469	41.1238	40.0665	42.4417	42.1797	40.0089	35.8128	32.409	28.7338	24.2725	22.147	19.4124	15.5439	11.6175	7.7553	4.8537	2.1526	0	0	0	0	0	0	0	0	0	0	0	0	0	0	0	0	0	0	0	0	0	0	0	0	0	0	0	0	0	0	0	0	0
352	54.6082	50.4977	48.7477	45.0099	43.429	42.1308	43.9219	43.1083	41.4972	37.7263	35.031	31.4216	27.7546	24.1844	21.1641	17.4156	13.5901	9.7721	6.6552	3.6621	0	0.191	0.2168	0	0	0	0	0	0	0	0	0	0	0	0	0	0	0	0	0	0	0	0	0	0	0	0	0	0	0	0	0	0
354	60.1042	57.0348	49.1484	47.2163	42.7479	45.385	44.3818	43.7243	43.9997	40.3596	37.6118	33.7553	30.7766	26.0832	22.8077	19.1666	16.5414	12.9326	8.0469	5.2509	2.0127	0.5577	0.4219	0	0	0	0	0	0	0	0	0	0	0	0	0	0	0	0	0	0	0	0	0	0	0	0	0	0	0	0	0	0
356	65.7439	54.3854	50.9164	48.1771	46.4738	44.9823	46.5784	44.9557	44.8699	42.7381	39.551	36.3189	33.0879	27.9394	25.4861	23.0181	20.4011	15.9641	10.7748	6.4613	3.8197	0.907	0.6176	0.0779	0	0	0	0	0	0	0	0	0	0	0	0	0	0	0	0	0	0	0	0	0	0	0	0	0	0	0	0	0
358	61.1357	59.9408	55.8622	49.5018	48.3782	48.6815	48.2022	48.7609	47.0646	44.725	42.0192	39.575	36.3538	32.7709	29.1571	26.7567	24.0351	18.9004	12.8952	8.9563	5.7298	1.2428	0.585	0.1526	0	0	0	0	0	0	0	0	0	0	0	0	0	0	0	0	0	0	0	0	0	0	0	0	0	0	0	0	0
360	68.606	62.8317	56.5265	54.8676	50.7838	50.8768	50.1242	49.6723	49.9736	46.0314	45.6198	42.9705	39.8159	37.0017	32.6502	30.2126	27.4975	21.6975	16.2946	11.2829	6.8225	3.5352	0.5533	0.2238	0	0	0	0	0	0	0	0	0	0	0	0	0	0	0	0	0	0	0	0	0	0	0	0	0	0	0	0	0
362	71.7118	64.9404	62.0277	57.822	54.4338	54.9138	53.7245	53.1445	52.5602	51.1433	48.8425	47.0221	43.6686	39.8238	36.2202	33.6803	30.2408	24.9646	19.6734	13.0294	9.2181	5.1105	0.5261	0.5106	0.3346	0	0	0	0	0	0	0	0	0	0	0	0	0	0	0	0	0	0	0	0	0	0	0	0	0	0	0	0
364	80.7215	70.8673	63.7618	59.7017	57.2988	56.4275	56.0204	57.3665	55.5565	54.1851	52.2529	51.4805	48.4616	44.4835	39.9377	37.0302	32.8882	28.9861	22.9438	16.1405	11.0428	6.9534	2.7211	1.0018	0.6588	0	0	0	0	0	0	0	0	0	0	0	0	0	0	0	0	0	0	0	0	0	0	0	0	0	0	0	0
366	83.9844	75.0833	70.2074	65.6724	63.0725	59.544	60.6052	60.2528	59.6523	59.21	56.1585	55.0064	53.1183	49.7492	44.0687	40.2955	36.3199	32.9021	26.127	19.1896	13.1962	8.5089	4.7552	1.4783	0.9733	0.1795	0	0	0	0	0	0	0	0	0	0	0	0	0	0	0	0	0	0	0	0	0	0	0	0	0	0	0
368	89.7947	80.6762	74.6782	67.5691	65.1127	63.5721	63.5843	63.8339	63.3861	63.1638	61.3424	59.4496	57.9904	54.5454	49.6883	43.485	40.0904	35.9334	29.1635	22.1606	15.4184	10.2298	6.1626	1.9415	1.0538	0.3538	0	0	0	0	0	0	0	0	0	0	0	0	0	0	0	0	0	0	0	0	0	0	0	0	0	0	0
370	93.1477	85.5751	76.4826	69.766	69.7405	68.4482	67.5051	67.7162	67.8297	67.2243	65.807	63.9408	64.1471	59.3117	56.0794	48.4961	43.741	38.8654	31.9697	25.0399	18.1247	12.2974	8.0608	4.0623	1.1315	0.5229	0	0	0	0	0	0	0	0	0	0	0	0	0	0	0	0	0	0	0	0	0	0	0	0	0	0	0
372	105.0435	89.498	84.569	77.8509	75.0464	71.5181	72.1385	72.9392	73.4888	70.3495	71.1308	69.7687	68.7943	65.7113	61.5257	53.2801	47.5163	41.7803	34.8622	29.0965	21.9772	14.8437	10.0904	5.8989	1.2126	0.9521	0.5075	0	0	0	0	0	0	0	0	0	0	0	0	0	0	0	0	0	0	0	0	0	0	0	0	0	0
374	106.8308	96.1871	90.5828	81.9194	79.9222	77.3323	77.2713	77.8473	77.7935	77.2618	76.5844	76.1977	75.4848	73.1619	66.2161	59.8879	51.2144	45.7027	39.9488	34.1922	25.7563	17.6439	12.0339	7.6574	3.5027	1.6318	1.0049	0	0	0	0	0	0	0	0	0	0	0	0	0	0	0	0	0	0	0	0	0	0	0	0	0	0
376	123.2468	104.8649	98.2144	88.3009	84.5807	83.0826	81.5801	81.4716	80.2062	82.4408	83.304	82.7723	82.0226	78.0451	72.4529	65.2031	56.9931	50.6277	44.8993	38.2611	29.4359	20.1235	14.2008	9.7165	5.343	2.2958	1.491	0.2685	0	0	0	0	0	0	0	0	0	0	0	0	0	0	0	0	0	0	0	0	0	0	0	0	0
378	127.2342	110.6589	101.6783	92.5677	90.808	85.5752	87.8984	87.0725	88.1566	88.9065	88.3222	90.5003	89.7118	85.4873	80.0205	72.2272	62.7098	55.3952	49.6985	42.2021	33.0051	24.2868	17.2	11.3968	7.3868	2.9422	1.5989	0.5307	0	0	0	0	0	0	0	0	0	0	0	0	0	0	0	0	0	0	0	0	0	0	0	0	0
380	140.0334	124.3544	106.055	97.5189	93.9314	93.9647	92.2032	92.5366	93.1628	95.0277	95.1299	97.5835	96.9074	93.6673	86.8878	77.9484	68.721	60.0439	53.4919	45.8382	36.4856	28.352	19.4564	13.7766	9.0824	4.705	1.7038	0.7864	0	0	0	0	0	0	0	0	0	0	0	0	0	0	0	0	0	0	0	0	0	0	0	0	0
382	154.7467	129.5791	116.3158	106.584	101.1033	97.5885	98.539	97.0849	99.2979	99.2684	101.5005	103.9344	104.6063	101.0798	93.99	84.3542	74.0585	64.8721	57.4489	49.402	41.1958	32.467	22.986	16.4966	11.0089	6.5942	1.8138	1.1961	0.4861	0	0	0	0	0	0	0	0	0	0	0	0	0	0	0	0	0	0	0	0	0	0	0	0
384	158.1444	140.2831	123.5387	115.0696	107.2521	102.5628	102.2118	103.4424	104.7865	106.3963	106.8529	109.4966	111.6118	109.3205	101.3041	91.1965	80.7016	70.2258	61.3453	52.9109	45.8392	36.5227	26.6334	18.8472	13.007	8.3134	3.9379	1.7538	0.9647	0	0	0	0	0	0	0	0	0	0	0	0	0	0	0	0	0	0	0	0	0	0	0	0
386	162.2113	139.8833	128.7052	118.2242	111.7975	106.5059	106.4265	107.4859	109.4077	111.6457	114.25	118.9576	120.0802	116.1341	109.9486	98.1391	87.2894	77.0297	65.4279	57.7225	50.3239	40.6713	30.3405	22.2126	15.3604	10.1247	5.963	2.3113	1.4411	0.3084	0	0	0	0	0	0	0	0	0	0	0	0	0	0	0	0	0	0	0	0	0	0	0
388	170.8855	148.5596	129.5521	123.5952	117.6051	112.2406	112.7009	113.9569	115.6033	116.5151	119.343	123.1761	126.8841	123.0485	115.6207	105.8585	93.7588	82.3452	69.7465	62.7407	54.7047	44.605	34.1504	25.35	18.2984	12.0792	7.3449	2.8748	1.6739	0.6166	0	0	0	0	0	0	0	0	0	0	0	0	0	0	0	0	0	0	0	0	0	0	0
390	184.3317	157.3855	141.9406	129.0813	123.2768	120.7796	117.0338	119.6124	121.6126	123.2562	126.257	131.7956	134.78	131.4575	124.8756	112.5574	100.8855	90.3664	77.7347	67.7673	59.0913	48.5428	37.9641	28.1146	20.8902	14.2991	9.4171	4.5796	1.9065	0.9245	0	0	0	0	0	0	0	0	0	0	0	0	0	0	0	0	0	0	0	0	0	0	0
392	192.4183	164.1906	148.3609	132.7849	130.6925	124.7559	124.6163	124.4038	126.7716	128.7002	132.0341	136.6135	141.2551	139.085	130.7577	121.7454	108.2154	96.8671	83.8986	72.3601	62.7354	52.1677	42.3925	32.3765	23.7718	16.8541	10.7784	6.2496	2.1261	1.3485	0.5051	0	0	0	0	0	0	0	0	0	0	0	0	0	0	0	0	0	0	0	0	0	0
394	205.4678	174.0498	155.5356	143.7674	133.945	130.3716	131.876	128.6603	135.4408	135.186	138.1799	145.0149	149.1597	146.4505	139.6881	127.3648	114.3803	103.5249	90.2629	76.8984	67.2419	57.5239	47.4736	36.59	26.6197	19.6122	12.6742	7.9663	3.6946	1.89	1.0036	0	0	0	0	0	0	0	0	0	0	0	0	0	0	0	0	0	0	0	0	0	0
396	208.27	185.1555	163.9817	146.441	143.2448	135.1394	133.5214	135.5106	137.6166	139.8049	144.3806	151.9171	155.4569	153.7584	146.4257	134.6181	122.9656	110.046	96.7739	84.5038	72.714	62.9197	52.2691	40.8185	29.794	22.4368	14.8829	9.6394	4.969	2.4281	1.4981	0.2579	0	0	0	0	0	0	0	0	0	0	0	0	0	0	0	0	0	0	0	0	0
398	210.7777	186.8121	168.8528	157.09	146.1403	142.1766	140.4117	140.5974	143.9557	145.8538	151.7375	158.9592	163.1828	163.0853	155.6572	144.2747	131.7472	118.5342	104.4019	90.9146	78.2677	68.0602	57.1159	45.0826	34.2385	25.1198	17.6913	11.1567	6.758	2.9654	1.595	0.514	0	0	0	0	0	0	0	0	0	0	0	0	0	0	0	0	0	0	0	0	0
400	227.2687	193.7835	178.6702	163.7557	155.0818	147.8879	148.5084	147.095	151.5205	153.027	157.015	165.4578	169.5423	169.4031	163.0387	152.5638	139.1377	126.5418	112.5948	98.7939	83.7972	73.0165	61.447	49.5739	38.6615	28.2922	19.9332	12.977	8.5295	4.4871	1.6911	0.7683	0	0	0	0	0	0	0	0	0	0	0	0	0	0	0	0	0	0	0	0	0
402	240.1767	209.1175	183.3908	170.4499	161.6677	152.9369	151.4764	152.7622	155.0994	158.1456	160.9996	171.9204	178.2379	175.9693	170.2161	160.2903	148.091	135.5043	120.1836	104.8077	90.5965	77.8135	65.6418	54.4457	42.9882	31.6131	22.8834	15.2691	10.0921	6.172	1.7835	1.2071	0.5235	0	0	0	0	0	0	0	0	0	0	0	0	0	0	0	0	0	0	0	0
404	246.7347	209.7688	190.3218	175.8506	168.87	161.2999	158.7516	155.9312	161.6621	162.9064	168.945	176.2559	184.5171	184.5338	179.897	167.6701	156.6383	142.6329	127.6467	113.3894	97.939	82.5684	70.3076	59.2761	47.2772	35.4287	25.2327	17.5159	11.8218	7.8964	3.8108	1.8284	1.0415	0	0	0	0	0	0	0	0	0	0	0	0	0	0	0	0	0	0	0	0
406	264.031	219.4598	201.7201	187.3489	175.6787	166.9162	165.6141	162.2272	165.552	165.5627	173.2011	181.7643	191.8672	191.4013	186.2217	175.9267	163.6202	150.8819	135.1578	120.9369	104.7315	87.4475	75.329	63.6654	51.4607	39.2839	28.7312	19.8374	13.5621	9.0985	5.0778	2.4478	1.5571	0.3618	0	0	0	0	0	0	0	0	0	0	0	0	0	0	0	0	0	0	0
408	275.5984	230.1944	202.2324	189.5324	184.7163	173.2469	169.6158	167.9604	171.3748	172.9434	177.7389	188.9497	195.8617	198.1656	194.7446	185.124	173.3802	159.3649	144.1896	128.231	112.1749	95.0202	80.4812	68.1629	55.3991	43.2011	31.3376	22.7182	15.4544	10.7768	7.0422	3.0689	1.8759	0.7225	0	0	0	0	0	0	0	0	0	0	0	0	0	0	0	0	0	0	0
410	266.5156	242.8341	217.7024	198.2897	186.917	179.4219	176.8424	174.7974	177.9615	178.3173	181.8747	194.9151	202.8441	202.5721	200.5822	193.0203	181.3888	167.4263	151.8159	136.2742	119.6138	102.1183	85.6313	72.32	59.3332	47.316	35.0807	25.122	18.1208	12.1957	8.4266	4.8232	2.1936	1.0822	0	0	0	0	0	0	0	0	0	0	0	0	0	0	0	0	0	0	0
412	283.0911	253.2982	218.8861	200.9914	196.7629	186.6603	183.9682	178.3356	181.2893	181.7632	186.8969	201.8648	207.9045	211.7173	210.6186	201.7895	188.3904	175.9354	160.7248	144.2361	126.1388	108.6565	90.7863	76.5187	63.6756	51.6326	38.8221	28.0484	20.2208	14.5366	10.2008	6.3661	2.5106	1.7396	0.7747	0	0	0	0	0	0	0	0	0	0	0	0	0	0	0	0	0	0
414	299.0095	255.7044	227.365	213.404	203.1124	191.1807	185.5657	184.2518	185.8969	185.9916	193.0928	202.7728	213.9948	217.4391	213.8875	207.3929	194.2055	183.8813	167.9026	151.5826	132.3979	115.2605	96.1669	80.9222	68.0147	55.3698	42.5593	30.5778	22.5379	16.215	11.7166	7.9016	4.7563	2.6936	1.5474	0	0	0	0	0	0	0	0	0	0	0	0	0	0	0	0	0	0
416	294.9949	266.2565	233.3197	218.0006	210.8691	198.153	190.2059	186.2433	188.5714	188.7241	194.3171	208.0315	217.632	221.7164	219.8928	215.7312	203.6796	191.787	176.1801	159.7664	140.5675	121.9806	102.388	85.5206	72.5181	59.2391	46.3989	33.6818	25.3654	18.7399	13.5599	9.7762	6.5587	3.6535	2.3232	0.6606	0	0	0	0	0	0	0	0	0	0	0	0	0	0	0	0	0
418	310.6373	274.4791	243.2744	229.8225	219.3414	204.5765	196.014	193.8961	193.6433	194.4479	200.5477	212.5506	220.9327	225.3121	226.8946	221.245	211.0611	200.2678	185.5283	167.9253	148.0603	129.0089	108.9168	90.3461	76.6301	63.2673	50.2366	37.5928	27.9495	21.5634	15.616	11.6059	8.6203	4.6257	3.0898	1.3254	0	0	0	0	0	0	0	0	0	0	0	0	0	0	0	0	0
420	319.1209	283.8596	251.0025	235.9319	224.3937	210.4368	203.1855	197.8651	198.9598	197.8485	202.7357	214.0787	226.0153	233.8105	231.5692	227.6382	218.9818	208.1695	192.4169	176.7772	156.3454	135.6435	114.9579	95.212	80.6411	67.0632	53.9599	41.535	31.1117	23.7046	18.0808	13.6309	10.3619	6.7264	3.8613	1.9944	0	0	0	0	0	0	0	0	0	0	0	0	0	0	0	0	0
422	330.2893	291.9966	260.7887	240.3042	229.8422	214.417	208.6348	201.4687	201.9927	200.9368	205.7493	219.252	230.0754	237.5577	237.6584	234.189	228.8307	215.9557	201.1045	181.2926	162.8086	142.2935	121.5953	101.3248	84.5702	70.9064	57.6998	45.5194	33.5595	26.4104	20.444	15.7361	12.5696	8.7974	4.6387	2.9795	1.1456	0	0	0	0	0	0	0	0	0	0	0	0	0	0	0	0
424	328.9456	294.1311	272.5093	244.6562	234.3035	220.1553	209.7234	206.8799	205.356	205.3154	208.5705	221.8655	234.3361	241.0036	243.9402	240.3087	233.2261	223.6194	208.7903	190.7718	170.2065	149.5467	126.8305	106.7481	88.5315	74.7544	61.4703	49.5372	37.2367	29.3827	22.9162	17.8011	14.2187	10.8912	7.0561	4.2838	2.2992	0	0	0	0	0	0	0	0	0	0	0	0	0	0	0	0
426	333.9584	305.8104	271.6199	250.5014	238.3242	227.7899	214.6138	212.3442	207.8463	207.7204	211.567	223.9772	235.2887	244.1355	246.844	246.8852	240.543	229.4345	216.0536	199.9247	176.286	155.8232	133.7533	112.0203	92.6781	78.7495	65.6786	53.2683	41.0109	31.9734	25.9857	20.3857	16.6375	13.0729	9.0113	5.6063	3.4664	0.8561	0	0	0	0	0	0	0	0	0	0	0	0	0	0	0
428	347.285	307.2642	279.176	264.8622	246.0918	229.4253	223.7674	212.6974	213.4483	209.2292	213.82	227.0225	239.6836	250.8327	252.2652	251.6557	247.402	238.345	222.4066	206.0453	185.9733	162.7767	139.5536	117.4581	98.4064	82.9238	70.048	56.3106	44.9002	34.6479	29.0687	23.1964	18.8416	14.8305	11.1911	6.9534	4.3286	1.7235	0	0	0	0	0	0	0	0	0	0	0	0	0	0	0
430	359.0944	317.4615	288.1711	268.3279	255.365	239.4627	225.8746	217.737	213.0351	213.8105	216.7552	230.2581	244.7042	254.053	258.0023	257.5003	254.3809	247.6451	232.6751	213.8571	193.9851	170.6338	145.6586	123.3907	104.0394	87.1544	73.6457	59.3924	48.844	38.4992	31.4863	25.6075	21.6128	17.4674	13.4167	8.8166	5.2019	2.6023	0	0	0	0	0	0	0	0	0	0	0	0	0	0	0
432	358.6272	329.5673	292.6103	271.1104	257.2404	242.1499	228.8369	222.294	218.288	214.9015	219.5467	229.828	244.7847	257.127	261.9179	262.792	261.4128	253.1658	240.0177	222.4405	199.924	176.3205	151.4846	128.6389	108.9802	91.3395	76.7855	63.4017	52.772	42.3577	34.1314	28.1471	23.826	19.1075	15.3345	10.7562	6.0796	3.5417	1.0803	0	0	0	0	0	0	0	0	0	0	0	0	0	0
434	354.1057	325.3309	294.0714	280.1808	263.9987	245.9761	230.6696	223.1261	218.5074	217.1604	221.3349	233.0333	247.5327	259.2594	263.4907	269.1837	264.9364	259.6446	246.6262	228.2488	206.5048	181.8923	157.0847	134.42	113.1334	96.7557	79.9594	67.4584	56.7226	46.2623	36.9065	30.6312	26.0969	21.5909	17.1235	12.7921	7.8929	4.5445	2.1725	0	0	0	0	0	0	0	0	0	0	0	0	0	0
