Description	ECS-B (clean blank)																																																				
EEM type	"Dilution- & Scatter-corrected, Calibrated Data (ppb QSE)"																																																				
Scan date	10/12/2010 10:21																																																				
Excitation	240-500nm by 5nm																																																				
Emission	290-600nm by 2nm																																																				
Calibration	Michael_Fluoromax4_April08 (07-Apr-2008)																																																				
Slit settings	"5nm Excitation, 5nm Emission"																																																				
Dilution	3																																																				
Row 1	Excitation(nm)																																																				
Col 1	Emission(nm)																																																				
Data	Fluorescence(ppb QSE)																																																				
																																																					
	240	245	250	255	260	265	270	275	280	285	290	295	300	305	310	315	320	325	330	335	340	345	350	355	360	365	370	375	380	385	390	395	400	405	410	415	420	425	430	435	440	445	450	455	460	465	470	475	480	485	490	495	500
290	0	0	0	0	0	0	0	0	0	0	0	0	0	0	0	0	0	0	0	0	0	0	0	0	0	0	0	0	0	0	0	0	0	0	0	0	0	0	0	0	0	0	0	0	0	0	0	0	0	0	0	0	0
292	0	0	0	0	0	0	0	0.3032	0	0	0	0	0	0	0	0	0	0	0	0	0	0	0	0	0	0	0	0	0	0	0	0	0	0	0	0	0	0	0	0	0	0	0	0	0	0	0	0	0	0	0	0	0
294	0	0	0	0	0	0	0	0.5997	0	0	0	0	0	0	0	0	0	0	0	0	0	0	0	0	0	0	0	0	0	0	0	0	0	0	0	0	0	0	0	0	0	0	0	0	0	0	0	0	0	0	0	0	0
296	0	0	0	0	0	0	0.9117	0.8885	0	0	0	0	0	0	0	0	0	0	0	0	0	0	0	0	0	0	0	0	0	0	0	0	0	0	0	0	0	0	0	0	0	0	0	0	0	0	0	0	0	0	0	0	0
298	0	0	0	0	0	0	1.7987	1.1684	0.4576	0	0	0	0	0	0	0	0	0	0	0	0	0	0	0	0	0	0	0	0	0	0	0	0	0	0	0	0	0	0	0	0	0	0	0	0	0	0	0	0	0	0	0	0
300	0	0	0	0	0	0.9385	2.3651	1.4401	0.9025	0	0	0	0	0	0	0	0	0	0	0	0	0	0	0	0	0	0	0	0	0	0	0	0	0	0	0	0	0	0	0	0	0	0	0	0	0	0	0	0	0	0	0	0
302	0	0	0	0	0	1.8808	2.6653	2.2053	1.3562	0	0	0	0	0	0	0	0	0	0	0	0	0	0	0	0	0	0	0	0	0	0	0	0	0	0	0	0	0	0	0	0	0	0	0	0	0	0	0	0	0	0	0	0
304	0	0	0	0	0	2.8269	2.9666	2.9735	1.8115	0.6409	0	0	0	0	0	0	0	0	0	0	0	0	0	0	0	0	0	0	0	0	0	0	0	0	0	0	0	0	0	0	0	0	0	0	0	0	0	0	0	0	0	0	0
306	0	0	0	0	0.4397	3.7749	3.7558	3.584	2.2673	1.2835	0	0	0	0	0	0	0	0	0	0	0	0	0	0	0	0	0	0	0	0	0	0	0	0	0	0	0	0	0	0	0	0	0	0	0	0	0	0	0	0	0	0	0
308	0.4675	0	0	0	1.6457	4.7234	4.545	4.0352	3.2438	1.9268	0	0	0	0	0	0	0	0	0	0	0	0	0	0	0	0	0	0	0	0	0	0	0	0	0	0	0	0	0	0	0	0	0	0	0	0	0	0	0	0	0	0	0
310	0	0	0	0	2.1073	4.4489	5.3357	4.4871	4.2224	2.5714	0.7558	0	0	0	0	0	0	0	0	0	0	0	0	0	0	0	0	0	0	0	0	0	0	0	0	0	0	0	0	0	0	0	0	0	0	0	0	0	0	0	0	0	0
312	0	0	0	0	2.3451	5.3381	6.0909	5.4228	4.9984	3.1976	1.5038	0	0	0	0	0	0	0	0	0	0	0	0	0	0	0	0	0	0	0	0	0	0	0	0	0	0	0	0	0	0	0	0	0	0	0	0	0	0	0	0	0	0
314	0	0	0	0.5882	2.6862	5.9866	6.838	6.3488	5.594	4.0584	2.2441	0	0	0	0	0	0	0	0	0	0	0	0	0	0	0	0	0	0	0	0	0	0	0	0	0	0	0	0	0	0	0	0	0	0	0	0	0	0	0	0	0	0
316	0	0.0131	0.6629	2.472	3.9321	5.8476	7.8572	7.2409	6.1625	4.8939	2.9668	0.8054	0	0	0	0	0	0	0	0	0	0	0	0	0	0	0	0	0	0	0	0	0	0	0	0	0	0	0	0	0	0	0	0	0	0	0	0	0	0	0	0	0
318	1.146	0	2.1024	2.5437	4.7068	6.5354	8.7254	8.0896	6.9289	5.6165	3.6645	1.5918	0	0	0	0	0	0	0	0	0	0	0	0	0	0	0	0	0	0	0	0	0	0	0	0	0	0	0	0	0	0	0	0	0	0	0	0	0	0	0	0	0
320	3.2592	1.4571	1.4069	3.3099	5.3579	7.8194	8.9265	8.9158	7.675	6.2424	4.4285	2.359	0	0	0	0	0	0	0	0	0	0	0	0	0	0	0	0	0	0	0	0	0	0	0	0	0	0	0	0	0	0	0	0	0	0	0	0	0	0	0	0	0
322	4.0012	0.7861	1.143	5.4312	6.36	8.2535	9.4967	9.2258	8.3618	6.8195	5.1488	3.0926	0.7685	0	0	0	0	0	0	0	0	0	0	0	0	0	0	0	0	0	0	0	0	0	0	0	0	0	0	0	0	0	0	0	0	0	0	0	0	0	0	0	0
324	3.8311	3.2743	3.9692	6.263	6.9033	8.7159	9.8905	9.6691	9.0205	7.4509	5.8148	3.7999	1.5108	0	0	0	0	0	0	0	0	0	0	0	0	0	0	0	0	0	0	0	0	0	0	0	0	0	0	0	0	0	0	0	0	0	0	0	0	0	0	0	0
326	7.5758	3.1625	4.52	5.4861	7.9952	8.9317	10.3193	11.0527	9.647	8.0526	6.425	4.4103	2.2259	0	0	0	0	0	0	0	0	0	0	0	0	0	0	0	0	0	0	0	0	0	0	0	0	0	0	0	0	0	0	0	0	0	0	0	0	0	0	0	0
328	6.9249	5.0307	4.512	6.1523	8.4249	9.5988	10.837	10.5511	10.0818	8.6236	7.006	4.9938	2.9128	0.7625	0	0	0	0	0	0	0	0	0	0	0	0	0	0	0	0	0	0	0	0	0	0	0	0	0	0	0	0	0	0	0	0	0	0	0	0	0	0	0
330	6.4919	6.8594	5.3658	7.2138	8.7721	9.786	10.9306	11.1957	10.7261	9.167	7.4972	5.5739	3.572	1.4962	0	0	0	0	0	0	0	0	0	0	0	0	0	0	0	0	0	0	0	0	0	0	0	0	0	0	0	0	0	0	0	0	0	0	0	0	0	0	0
332	9.7498	6.7024	7.3126	8.9715	9.0927	10.2603	10.748	12.0499	10.9056	9.5788	7.8785	6.0832	4.2465	2.1774	0	0	0	0	0	0	0	0	0	0	0	0	0	0	0	0	0	0	0	0	0	0	0	0	0	0	0	0	0	0	0	0	0	0	0	0	0	0	0
334	8.9867	8.158	8.1232	8.2385	9.8508	11.215	10.4911	11.6685	11.424	9.9307	8.2222	6.5507	4.8727	2.8138	0.8431	0	0	0	0	0	0	0	0	0	0	0	0	0	0	0	0	0	0	0	0	0	0	0	0	0	0	0	0	0	0	0	0	0	0	0	0	0	0
336	10.3661	9.0542	8.2084	9.6056	10.3267	11.14	11.0685	11.3804	11.7179	10.9003	8.537	7.0642	5.4287	3.409	1.6344	0	0	0	0	0	0	0	0	0	0	0	0	0	0	0	0	0	0	0	0	0	0	0	0	0	0	0	0	0	0	0	0	0	0	0	0	0	0
338	12.0559	9.3602	9.5743	9.1704	10.7083	12.1408	11.2288	11.6033	11.6548	10.8608	8.8246	7.5398	5.9191	4.2075	2.3764	0.3599	0	0	0	0	0	0	0	0	0	0	0	0	0	0	0	0	0	0	0	0	0	0	0	0	0	0	0	0	0	0	0	0	0	0	0	0	0
340	12.1722	10.1346	10.2672	10.6431	10.9445	11.74	11.5572	12.139	12.2662	10.9242	9.6621	7.971	6.3675	4.9486	3.068	1.3523	0.0554	0	0	0	0	0	0	0	0	0	0	0	0	0	0	0	0	0	0	0	0	0	0	0	0	0	0	0	0	0	0	0	0	0	0	0	0
342	14.8242	11.0474	10.4672	11.0349	10.9623	11.8313	12.5992	12.0591	12.3158	11.294	10.0552	8.4035	7.0385	5.6092	3.7294	2.2914	0.569	0	0	0	0	0	0	0	0	0	0	0	0	0	0	0	0	0	0	0	0	0	0	0	0	0	0	0	0	0	0	0	0	0	0	0	0
344	15.9949	11.807	11.3295	11.6906	12.4179	11.6076	13.3937	12.3687	12.1781	12.0628	10.3917	8.7988	7.6613	6.1723	4.668	3.1754	1.5159	0.5605	0	0	0	0	0	0	0	0	0	0	0	0	0	0	0	0	0	0	0	0	0	0	0	0	0	0	0	0	0	0	0	0	0	0	0
346	15.7369	12.9244	13.656	12.6205	12.4255	12.601	13.0281	13.2255	13.1633	12.354	10.9183	9.3049	8.2576	6.7106	5.5603	4.0146	2.3972	0.7765	0	0	0	0	0	0	0	0	0	0	0	0	0	0	0	0	0	0	0	0	0	0	0	0	0	0	0	0	0	0	0	0	0	0	0
348	19.065	14.7647	13.7909	12.9589	12.5095	12.9319	13.3448	13.08	13.2529	12.8255	11.8737	10.5736	8.8335	7.5323	6.3672	4.8163	3.2368	1.7944	0.6402	0	0	0	0	0	0	0	0	0	0	0	0	0	0	0	0	0	0	0	0	0	0	0	0	0	0	0	0	0	0	0	0	0	0
350	18.6397	17.1119	14.143	13.3214	13.2503	14.0357	14.3755	13.4229	13.6356	13.2447	12.1155	10.9754	9.3696	8.3037	7.0802	5.57	4.0308	2.6528	1.2175	0.1654	0	0	0	0	0	0	0	0	0	0	0	0	0	0	0	0	0	0	0	0	0	0	0	0	0	0	0	0	0	0	0	0	0
352	20.9708	17.4079	15.9613	14.2895	14.1912	13.8984	14.476	13.9236	13.8572	13.6126	13.107	11.9573	10.5621	9.0266	7.7491	6.2792	4.7802	3.2826	2.1399	0.688	0	0	0	0	0	0	0	0	0	0	0	0	0	0	0	0	0	0	0	0	0	0	0	0	0	0	0	0	0	0	0	0	0
354	21.5557	17.5805	16.3068	15.7448	15.4682	15.3114	15.2303	14.7899	14.7287	14.018	13.4502	12.5086	11.187	9.6994	8.3704	6.943	5.6611	4.3474	2.873	1.48	0.2141	0	0	0	0	0	0	0	0	0	0	0	0	0	0	0	0	0	0	0	0	0	0	0	0	0	0	0	0	0	0	0	0
356	22.5803	20.7343	16.6799	16.3036	15.454	14.8758	15.6851	15.7862	14.685	14.7641	14.055	13.3213	12.3992	10.3577	9.1495	7.9331	6.7145	5.368	3.6395	2.0571	0.8119	0	0	0	0	0	0	0	0	0	0	0	0	0	0	0	0	0	0	0	0	0	0	0	0	0	0	0	0	0	0	0	0
358	23.3316	21.125	18.825	16.7213	16.7212	16.0147	16.006	15.5322	16.0202	14.8172	14.6213	14.1618	13.07	11.7351	10.0838	8.8977	7.7999	6.3559	4.7532	2.9745	1.8412	0	0	0	0	0	0	0	0	0	0	0	0	0	0	0	0	0	0	0	0	0	0	0	0	0	0	0	0	0	0	0	0
360	25.5289	23.9953	19.367	18.9391	18.2409	16.939	16.3427	16.437	16.4313	15.992	15.6243	14.971	14.0135	12.4982	10.9693	9.8751	8.8324	7.2963	5.7689	3.8963	2.3152	0.895	0	0	0	0	0	0	0	0	0	0	0	0	0	0	0	0	0	0	0	0	0	0	0	0	0	0	0	0	0	0	0
362	28.1887	23.8877	22.122	19.7661	18.2661	18.1048	17.6648	16.6563	16.9791	16.8092	16.0414	15.7822	14.9959	13.8383	11.8896	10.9078	9.7588	8.3306	6.783	4.8362	2.995	1.6433	0	0.0178	0.0206	0	0	0	0	0	0	0	0	0	0	0	0	0	0	0	0	0	0	0	0	0	0	0	0	0	0	0	0
364	28.3858	26.2775	23.9256	20.2445	20.673	18.6685	18.7275	17.5002	17.5527	17.3036	17.6352	16.4763	16.012	14.5549	13.3523	11.9041	10.6524	9.4944	7.7633	5.8379	3.8762	2.3867	0.6859	0.0527	0.0405	0	0	0	0	0	0	0	0	0	0	0	0	0	0	0	0	0	0	0	0	0	0	0	0	0	0	0	0
366	32.8164	27.9354	25.5258	22.6912	20.6654	20.6245	19.0125	18.3886	18.5338	18.6282	18.185	17.8465	16.8678	15.7958	14.7124	12.8745	11.6851	10.6268	8.7169	6.7753	4.7588	2.9175	1.6133	0.0865	0.0598	0	0	0	0	0	0	0	0	0	0	0	0	0	0	0	0	0	0	0	0	0	0	0	0	0	0	0	0
368	33.7684	30.3225	26.7397	24.0678	22.377	21.1635	19.898	19.5219	19.3457	19.1456	18.9972	18.8316	18.1494	17.0985	15.7968	13.822	12.7726	11.5344	9.634	7.6883	5.6029	3.5516	2.0638	0.1193	0.0393	0	0	0	0	0	0	0	0	0	0	0	0	0	0	0	0	0	0	0	0	0	0	0	0	0	0	0	0
370	34.8011	32.9654	27.9645	25.2601	23.7549	22.274	20.9648	19.433	20.108	19.9774	19.9274	19.4798	18.9432	18.3143	17.0764	15.3566	13.8239	12.4113	10.4967	8.5721	6.6394	4.5064	2.6813	1.1506	0.0194	0	0	0	0	0	0	0	0	0	0	0	0	0	0	0	0	0	0	0	0	0	0	0	0	0	0	0	0
372	38.4665	34.9255	30.8593	27.6495	24.5806	22.2424	21.2116	21.2693	21.4052	21.4019	20.7747	21.1025	20.552	19.6562	18.4586	16.7252	14.9154	13.3015	11.3882	9.7191	7.7141	5.3817	3.5101	1.8742	0	0.0521	0.0609	0	0	0	0	0	0	0	0	0	0	0	0	0	0	0	0	0	0	0	0	0	0	0	0	0	0
374	40.967	35.9901	30.6923	28.3333	26.7505	23.949	23.1114	22.3151	22.4764	22.34	22.3989	21.769	21.6041	20.9531	19.7913	18.3726	15.9833	14.4051	12.7476	11.0843	8.7668	6.2512	4.1706	2.3625	0.7263	0.1546	0.1205	0	0	0	0	0	0	0	0	0	0	0	0	0	0	0	0	0	0	0	0	0	0	0	0	0	0
376	43.0624	38.2979	33.1439	30.3613	28.6342	25.2954	23.9596	23.6803	23.043	23.4786	23.2989	23.3031	22.8457	22.4823	21.1149	19.4541	17.6109	15.7137	14.0664	12.153	9.789	7.3576	4.8897	3.041	1.4226	0.2549	0.1787	0	0	0	0	0	0	0	0	0	0	0	0	0	0	0	0	0	0	0	0	0	0	0	0	0	0
378	45.4409	40.884	36.1997	31.1238	29.0275	27.0577	25.7793	24.5108	24.5671	24.6832	24.0451	24.721	24.3374	24.2947	22.3814	20.987	18.8142	16.9761	15.3408	13.1846	10.7777	8.4	5.9542	3.687	2.156	0.3526	0.1177	0	0	0	0	0	0	0	0	0	0	0	0	0	0	0	0	0	0	0	0	0	0	0	0	0	0
380	49.2978	41.8512	38.4985	34.1303	30.4804	28.2231	26.7147	25.6825	25.3992	25.6191	25.5476	25.7186	25.635	25.0759	23.8464	21.9082	20.2656	18.2046	16.3275	14.1605	11.7404	9.4159	7.0671	4.5687	2.7932	1.2221	0.0582	0	0	0	0	0	0	0	0	0	0	0	0	0	0	0	0	0	0	0	0	0	0	0	0	0	0
382	48.6956	46.1285	40.2679	34.8714	32.4195	29.1411	28.216	26.9399	26.6509	26.0078	26.9538	26.8866	27.294	26.6137	25.2297	23.8528	22.0861	19.4882	17.3655	15.1507	12.9217	10.4528	7.777	5.3842	3.461	2.047	0	0.0794	0.0928	0	0	0	0	0	0	0	0	0	0	0	0	0	0	0	0	0	0	0	0	0	0	0	0
384	52.6442	47.3087	41.9171	37.5052	33.2636	31.8029	28.8209	27.6024	27.7832	27.6058	27.7031	28.2385	28.111	27.73	26.7568	25.0602	23.125	20.906	18.386	16.1244	14.0842	11.4731	8.7227	6.4211	4.1483	2.572	0.9201	0.2362	0.1841	0	0	0	0	0	0	0	0	0	0	0	0	0	0	0	0	0	0	0	0	0	0	0	0
386	52.7051	48.3332	43.2995	38.4824	35.0994	33.0953	30.0239	28.7928	27.9476	28.0961	29.1918	29.5024	29.5171	28.7563	27.9806	26.557	24.5062	22.603	19.462	17.3331	15.2148	12.5236	9.6893	7.279	5.0641	3.2007	1.6446	0.392	0.275	0.0309	0	0	0	0	0	0	0	0	0	0	0	0	0	0	0	0	0	0	0	0	0	0	0
388	57.3422	50.8529	43.327	41.8607	37.0936	33.4758	31.395	29.9662	29.5534	29.1179	30.0704	30.445	31.1811	30.0709	29.2012	27.9557	25.6631	23.5564	20.6064	18.6018	16.3276	13.5516	10.688	8.3556	5.8941	3.9298	2.2887	0.5485	0.2546	0.0617	0	0	0	0	0	0	0	0	0	0	0	0	0	0	0	0	0	0	0	0	0	0	0
390	60.0229	53.7503	47.0851	42.5201	39.241	35.1051	32.8582	31.2989	30.309	31.1286	30.903	31.8153	32.0953	31.7371	30.977	28.9951	27.2188	25.4703	22.411	19.8706	17.4402	14.5794	11.6866	8.99	7.0605	4.6167	2.8879	1.3899	0.2343	0.0925	0	0	0	0	0	0	0	0	0	0	0	0	0	0	0	0	0	0	0	0	0	0	0
392	64.5741	54.9609	48.754	44.5259	40.2763	36.3214	34.0021	32.1252	31.7048	31.7667	32.0526	32.7022	33.4644	33.0448	32.1645	30.7915	29.0112	26.5068	23.9525	21.0124	18.3754	15.5134	12.7666	10.1162	7.7935	5.383	3.5317	1.9346	0.2126	0.2012	0.1285	0	0	0	0	0	0	0	0	0	0	0	0	0	0	0	0	0	0	0	0	0	0
394	64.4572	58.0693	50.7824	45.0138	42.0841	38.2706	34.7558	33.4911	32.2826	32.269	32.7126	34.2733	34.7329	34.4757	33.7356	32.1925	30.2205	28.0201	25.2632	22.1387	19.4623	16.7576	13.9893	11.228	8.7981	6.2689	4.2679	2.5964	1.0187	0.3868	0.2553	0	0	0	0	0	0	0	0	0	0	0	0	0	0	0	0	0	0	0	0	0	0
396	62.7133	60.3914	52.027	47.8791	43.3893	39.1714	35.7294	34.3132	33.2089	33.6809	33.9762	35.1054	35.6589	36.2102	34.8447	33.5487	31.4661	29.3524	26.9352	23.6736	20.7303	18.0135	15.2203	12.3446	9.6124	7.2604	5.0521	3.3419	1.7022	0.5708	0.381	0.0476	0	0	0	0	0	0	0	0	0	0	0	0	0	0	0	0	0	0	0	0	0
398	68.3309	63.3429	57.4133	50.6333	45.3147	40.2061	37.578	35.7148	34.3862	34.7065	35.4383	36.192	36.9405	37.2703	36.7117	34.9963	33.4829	31.2327	28.2844	25.3026	22.0205	19.288	16.4652	13.4715	10.8131	8.437	6.059	3.8802	2.427	0.7541	0.3639	0.095	0	0	0	0	0	0	0	0	0	0	0	0	0	0	0	0	0	0	0	0	0
400	69.8905	67.3251	58.0119	52.6877	47.7002	42.1424	38.7863	36.8943	35.6965	35.4412	36.6183	37.3813	38.5244	38.8072	38.0862	36.8488	34.9997	32.5795	29.5611	27.0439	23.3025	20.5546	17.6045	14.6394	12.0063	9.3821	6.8325	4.4634	3.0937	1.4578	0.3469	0.1419	0	0	0	0	0	0	0	0	0	0	0	0	0	0	0	0	0	0	0	0	0
402	74.2257	67.4882	62.3048	54.4482	49.3245	45.0807	40.8909	37.5688	37.0455	36.7684	37.2286	38.4117	40.0151	40.0499	39.6343	38.3467	36.7211	34.1149	31.5228	28.625	25.2069	21.7756	18.7042	15.8688	13.1694	10.5619	7.9438	5.4134	3.563	2.1787	0.3294	0.2575	0.1375	0	0	0	0	0	0	0	0	0	0	0	0	0	0	0	0	0	0	0	0
404	78.8236	71.3378	64.2863	56.9338	51.6755	46.0746	42.1775	39.751	38.0271	37.5557	39.0459	40.2322	41.3183	41.2461	40.8854	40.1343	38.0707	35.7696	32.7178	29.9654	26.9084	22.984	19.8904	17.0857	14.3207	11.5683	8.8636	6.3811	4.3886	2.8461	1.0871	0.4406	0.2735	0	0	0	0	0	0	0	0	0	0	0	0	0	0	0	0	0	0	0	0
406	78.5045	71.6267	65.0859	59.3468	53.2757	48.2758	44.0157	40.2498	39.1814	38.5678	39.8841	41.0898	42.4027	43.0595	42.8876	41.4193	39.1879	37.4761	34.471	31.7719	28.4124	24.2251	21.1529	18.2621	15.4386	12.5879	9.7565	7.2624	4.9924	3.4266	1.7505	0.623	0.4089	0.0414	0	0	0	0	0	0	0	0	0	0	0	0	0	0	0	0	0	0	0
408	81.1132	73.435	66.3232	60.7764	56.7027	49.2357	44.706	41.4739	41.1839	39.8954	40.721	42.1839	44.1558	43.8105	43.8206	42.7214	41.0777	39.1389	36.3546	33.1452	29.7718	26.1414	22.4499	19.4678	16.4794	13.6267	10.8596	8.0994	5.6515	4.0442	2.49	0.8057	0.3683	0.0828	0	0	0	0	0	0	0	0	0	0	0	0	0	0	0	0	0	0	0
410	84.7782	79.3532	68.4265	63.4545	57.4936	51.8768	46.4094	42.5329	41.0751	41.3057	42.0333	43.5945	44.9245	45.2202	45.0965	44.2088	42.9296	40.6349	38.1532	34.9183	31.8103	27.8105	23.7441	20.5681	17.5177	14.785	11.8813	9.1046	6.5829	4.5962	3.1141	1.5342	0.3278	0.1239	0	0	0	0	0	0	0	0	0	0	0	0	0	0	0	0	0	0	0
412	86.6679	81.8582	71.9719	65.2655	60.3597	52.9999	48.0985	44.2832	42.9948	41.527	43.0526	44.2074	45.5086	46.2564	46.9468	46.104	44.2446	42.4555	39.1493	36.6378	33.1358	29.6423	25.0375	21.7405	18.8	16.0637	12.9015	10.0733	7.4296	5.3673	3.742	2.2304	0.2875	0.2575	0.1573	0	0	0	0	0	0	0	0	0	0	0	0	0	0	0	0	0	0
414	86.7119	83.7135	74.687	67.5092	62.2871	54.3743	49.3506	45.6596	43.9424	43.3123	43.5995	45.7887	46.7379	47.8579	48.047	47.3344	45.6155	43.5253	40.9275	37.9929	34.4909	30.8962	26.8055	23.0347	20.0798	17.0779	13.9195	11.1031	8.4056	6.1238	4.2881	2.8255	1.1592	0.4831	0.3141	0	0	0	0	0	0	0	0	0	0	0	0	0	0	0	0	0	0
416	90.8699	83.9887	76.8187	69.4209	61.6866	55.3836	50.3627	46.7001	44.6222	43.8561	44.6883	46.3905	47.8667	48.2639	48.8821	48.7778	47.1598	45.5572	42.7226	39.454	36.5148	32.9177	28.3305	24.3822	21.4059	18.1312	14.9694	11.8329	9.1442	6.8663	4.9626	3.4001	2.0289	0.7096	0.4716	0.073	0	0	0	0	0	0	0	0	0	0	0	0	0	0	0	0	0
418	93.1886	88.7023	76.8721	70.9297	65.8035	58.1155	52.5834	49.054	45.5371	45.9375	45.2826	46.9114	48.7346	49.2734	50.2173	50.1395	48.5273	46.5117	44.3015	41.4883	37.6984	34.1474	29.9796	25.792	22.5224	19.2308	16.1293	12.9696	10.1647	7.8391	5.7339	4.0856	2.6202	0.9386	0.4849	0.1464	0	0	0	0	0	0	0	0	0	0	0	0	0	0	0	0	0
420	99.1816	88.4741	80.4109	72.3493	67.7284	60.2252	53.9982	50.0524	47.0553	45.5992	46.3759	48.2943	49.7316	50.8624	51.2668	51.6446	50.2421	48.1155	45.9054	43.0781	39.7122	35.5983	31.3616	27.2116	23.7181	20.4805	17.3146	14.114	11.2365	8.6847	6.374	4.6372	3.3316	1.6932	0.4983	0.2202	0	0	0	0	0	0	0	0	0	0	0	0	0	0	0	0	0
422	97.0162	88.7915	82.7354	75.0208	68.9357	62.523	55.6664	50.3634	48.6464	47.1754	47.6738	48.9477	50.595	52.3332	52.5324	52.6442	51.7941	50.1185	47.195	45.0538	41.0595	37.0056	32.8628	28.5471	25.0001	21.7441	18.4047	15.2698	12.1731	9.3976	7.2924	5.2575	3.8764	2.301	0.5119	0.3943	0.2031	0	0	0	0	0	0	0	0	0	0	0	0	0	0	0	0
424	97.9369	92.4257	84.1269	76.7903	70.7482	63.9451	57.5574	51.578	48.7741	47.9007	48.6725	49.5621	51.4578	52.6673	53.7908	53.69	53.2785	51.1981	49.0307	46.2437	42.4264	38.5526	34.2551	30.2123	26.2914	22.9084	19.5026	16.434	13.1837	10.3804	7.9468	5.8879	4.4022	2.8098	1.4286	0.6695	0.4075	0	0	0	0	0	0	0	0	0	0	0	0	0	0	0	0
426	103.2827	93.0899	84.9306	77.3727	72.5605	63.688	58.4362	52.7561	50.7668	48.6937	49.1235	50.7817	52.8898	53.3029	54.5171	54.8795	54.1189	52.6452	50.3942	47.7682	43.8117	40.3271	35.4859	31.6592	27.6369	24.0656	20.7173	17.5483	14.2244	11.3102	8.9001	6.5735	4.9813	3.5952	1.9937	0.9482	0.6143	0.1142	0	0	0	0	0	0	0	0	0	0	0	0	0	0	0
428	106.3605	95.1238	86.7384	81.5644	73.2335	66.1051	59.5554	54.8284	50.593	49.4507	50.3149	51.1726	53.1943	54.3342	55.5875	56.0132	55.5941	54.1798	51.9373	48.8474	45.4138	41.4324	36.9452	33.1991	29.2604	25.2748	21.9795	18.5288	15.3002	12.2553	9.7538	7.4033	5.5474	4.109	2.689	1.2315	0.6791	0.2299	0	0	0	0	0	0	0	0	0	0	0	0	0	0	0
430	108.3202	99.8469	89.3351	81.5751	74.1262	66.9834	60.5576	55.3224	52.221	50.643	50.6706	51.8035	53.6863	55.3452	56.3184	57.0395	56.5902	55.4699	53.4969	50.7039	47.2436	42.8637	38.3327	34.3488	30.53	26.4988	23.0814	19.5213	16.3896	13.2594	10.4814	8.2718	6.2847	4.6173	3.2266	1.8071	0.7447	0.347	0	0	0	0	0	0	0	0	0	0	0	0	0	0	0
432	108.5008	100.656	89.3241	82.7273	76.5819	67.3445	62.0674	56.6687	53.2262	51.4314	51.3355	52.9849	54.6024	55.8342	57.6672	57.8937	57.6208	56.6935	54.6563	51.9031	48.4324	44.449	39.7659	35.3941	32.1951	27.7069	24.0814	20.622	17.4495	14.2604	11.3241	8.8282	6.9113	5.1166	3.9502	2.4095	0.8101	0.5358	0.2184	0	0	0	0	0	0	0	0	0	0	0	0	0	0
434	109.8468	99.6855	92.4533	85.736	77.8482	69.5368	62.643	56.7682	53.9184	52.4559	51.4587	53.1605	55.4216	56.7035	57.801	58.5517	58.3144	57.799	55.9404	52.8	49.5265	45.4826	41.0572	36.8239	33.2524	29.1212	25.0914	21.7342	18.4727	15.2719	12.3442	9.5864	7.7024	5.9206	4.4162	2.9476	1.4587	0.7975	0.4391	0	0	0	0	0	0	0	0	0	0	0	0	0	0
436	110.8792	101.9995	93.1255	86.2276	81.1614	71.0206	63.2636	58.2811	54.9488	52.2318	52.4506	54.2788	55.3886	57.199	58.2383	59.5083	59.7449	58.2925	57.2365	54.2803	50.9906	46.869	42.0317	37.7961	34.2621	30.4223	26.1453	22.8392	19.5317	16.3151	13.0376	10.5612	8.4619	6.3598	4.8848	3.5712	2.0428	1.0634	0.6629	0.1137	0	0	0	0	0	0	0	0	0	0	0	0	0
438	110.582	101.0256	95.4845	87.0098	80.0923	73.5701	65.4645	59.765	55.6052	52.5312	53.2981	54.2807	56.1574	57.8561	58.6947	60.2631	60.3258	60.0478	57.8789	55.1202	51.6939	48.1088	43.2864	39.2064	35.5525	31.4915	27.2465	23.8694	20.4409	17.108	13.824	11.1506	9.1093	7.1513	5.4874	3.9974	2.6045	1.3343	0.7144	0.2291	0	0	0	0	0	0	0	0	0	0	0	0	0
440	113.9302	105.0698	96.8079	87.7033	82.222	75.1216	66.644	59.9154	55.9301	53.6038	52.9111	54.0745	56.201	57.3071	59.302	60.7605	60.93	60.716	58.9448	56.5753	52.9798	49.0144	44.5332	39.9029	36.3045	32.5805	28.5156	24.6271	21.1715	17.7578	14.6215	11.9532	9.8863	7.8092	5.9977	4.462	3.1783	1.7801	0.7665	0.3463	0	0	0	0	0	0	0	0	0	0	0	0	0
442	112.3108	104.5364	98.8971	89.1254	84.1108	75.1721	67.2151	60.1217	56.9834	55.0242	53.9161	54.0267	56.8395	57.7704	59.9425	61.2694	61.9022	61.3268	59.4799	57.2636	54.2396	49.9991	44.9971	41.1403	37.4909	33.872	29.7049	25.3743	21.8943	18.2849	15.418	12.7171	10.3889	8.4343	6.6853	5.0469	3.7218	2.3378	0.8187	0.4985	0.1734	0	0	0	0	0	0	0	0	0	0	0	0
444	115.8728	106.0145	97.4589	89.1623	84.0609	76.1801	67.3517	61.723	57.3004	54.6268	54.5077	54.9594	56.8179	59.0468	60.1362	61.5999	62.1893	61.7338	60.5389	58.5126	54.8538	50.612	46.4917	41.6654	38.226	34.4489	30.2694	26.1298	22.5083	18.8176	16.2245	13.4063	11.233	9.2085	7.2521	5.4626	4.2408	2.9215	1.4749	0.6867	0.3492	0	0	0	0	0	0	0	0	0	0	0	0
