Description	Scan series EEM_1.prn through EEM_53.prn																																																				
EEM type	"Dilution- & Scatter-corrected, Calibrated Data (ppb QSE)"																																																				
Scan date	3/5/2013 16:03																																																				
Excitation	240-500nm by 5nm																																																				
Emission	290-600nm by 2nm																																																				
Calibration	Michael_Fluoromax4_April08 (07-Apr-2008)																																																				
Slit settings	"5nm Excitation, 5nm Emission"																																																				
Dilution	6																																																				
Row 1	Excitation(nm)																																																				
Col 1	Emission(nm)																																																				
Data	Fluorescence(ppb QSE)																																																				
																																																					
	240	245	250	255	260	265	270	275	280	285	290	295	300	305	310	315	320	325	330	335	340	345	350	355	360	365	370	375	380	385	390	395	400	405	410	415	420	425	430	435	440	445	450	455	460	465	470	475	480	485	490	495	500
290	4.1064	7.2062	3.7151	2.738	1.8992	1.1692	0.5521	0	0	0	0	0	0	0	0	0	0	0	0	0	0	0	0	0	0	0	0	0	0	0	0	0	0	0	0	0	0	0	0	0	0	0	0	0	0	0	0	0	0	0	0	0	0
292	5.5264	0.5742	3.3931	2.9867	2.1359	1.3942	0.8285	0.4663	0	0	0	0	0	0	0	0	0	0	0	0	0	0	0	0	0	0	0	0	0	0	0	0	0	0	0	0	0	0	0	0	0	0	0	0	0	0	0	0	0	0	0	0	0
294	7.6585	5.7823	4.6775	3.2293	2.3671	1.7356	1.2711	0.9224	0	0	0	0	0	0	0	0	0	0	0	0	0	0	0	0	0	0	0	0	0	0	0	0	0	0	0	0	0	0	0	0	0	0	0	0	0	0	0	0	0	0	0	0	0
296	11.9745	7.3631	4.9325	3.4611	2.7843	2.1866	2.1557	1.3666	0	0	0	0	0	0	0	0	0	0	0	0	0	0	0	0	0	0	0	0	0	0	0	0	0	0	0	0	0	0	0	0	0	0	0	0	0	0	0	0	0	0	0	0	0
298	16.8854	9.8203	8.2662	7.8357	3.2503	2.6222	3.014	1.7969	0.6688	0	0	0	0	0	0	0	0	0	0	0	0	0	0	0	0	0	0	0	0	0	0	0	0	0	0	0	0	0	0	0	0	0	0	0	0	0	0	0	0	0	0	0	0
300	20.9876	13.8144	9.2951	7.7155	3.7021	3.5127	3.637	2.2147	1.319	0	0	0	0	0	0	0	0	0	0	0	0	0	0	0	0	0	0	0	0	0	0	0	0	0	0	0	0	0	0	0	0	0	0	0	0	0	0	0	0	0	0	0	0
302	18.4564	12.3083	12.9647	7.9352	4.2066	4.4477	4.0985	3.2887	1.9819	0	0	0	0	0	0	0	0	0	0	0	0	0	0	0	0	0	0	0	0	0	0	0	0	0	0	0	0	0	0	0	0	0	0	0	0	0	0	0	0	0	0	0	0
304	22.026	18.1501	12.397	6.6615	4.0834	5.386	4.5617	4.3666	2.6471	0.7371	0	0	0	0	0	0	0	0	0	0	0	0	0	0	0	0	0	0	0	0	0	0	0	0	0	0	0	0	0	0	0	0	0	0	0	0	0	0	0	0	0	0	0
306	24.8714	20.6629	14.2579	9.4	6.4947	6.3245	5.6691	5.2361	3.3129	1.4761	0	0	0	0	0	0	0	0	0	0	0	0	0	0	0	0	0	0	0	0	0	0	0	0	0	0	0	0	0	0	0	0	0	0	0	0	0	0	0	0	0	0	0
308	26.7824	19.0829	11.924	11.1318	8.7443	7.2618	6.7761	5.895	4.1533	2.2158	0	0	0	0	0	0	0	0	0	0	0	0	0	0	0	0	0	0	0	0	0	0	0	0	0	0	0	0	0	0	0	0	0	0	0	0	0	0	0	0	0	0	0
310	31.2968	23.2379	19.5844	15.2399	9.3607	7.8999	7.8849	6.5548	4.995	2.9567	0.785	0	0	0	0	0	0	0	0	0	0	0	0	0	0	0	0	0	0	0	0	0	0	0	0	0	0	0	0	0	0	0	0	0	0	0	0	0	0	0	0	0	0
312	23.5827	29.012	22.5206	15.1872	10.026	8.9338	8.9413	7.3441	5.7447	3.6763	1.5618	0	0	0	0	0	0	0	0	0	0	0	0	0	0	0	0	0	0	0	0	0	0	0	0	0	0	0	0	0	0	0	0	0	0	0	0	0	0	0	0	0	0
314	33.3002	24.3727	22.5739	16.9002	9.903	10.485	9.9863	8.1247	6.4285	4.4254	2.3303	0	0	0	0	0	0	0	0	0	0	0	0	0	0	0	0	0	0	0	0	0	0	0	0	0	0	0	0	0	0	0	0	0	0	0	0	0	0	0	0	0	0
316	28.3519	31.9176	28.2193	19.7919	11.3449	10.1783	11.7275	8.8671	7.081	5.1492	3.0802	0.7977	0	0	0	0	0	0	0	0	0	0	0	0	0	0	0	0	0	0	0	0	0	0	0	0	0	0	0	0	0	0	0	0	0	0	0	0	0	0	0	0	0
318	36.1607	29.2952	28.9009	17.954	13.1591	10.927	12.7668	9.5631	7.731	5.8279	3.804	1.5762	0	0	0	0	0	0	0	0	0	0	0	0	0	0	0	0	0	0	0	0	0	0	0	0	0	0	0	0	0	0	0	0	0	0	0	0	0	0	0	0	0
320	36.8122	30.5247	26.1067	20.6097	12.6077	10.7964	12.8474	10.2394	8.3629	6.4764	4.4874	2.3355	0	0	0	0	0	0	0	0	0	0	0	0	0	0	0	0	0	0	0	0	0	0	0	0	0	0	0	0	0	0	0	0	0	0	0	0	0	0	0	0	0
322	41.754	34.5391	25.154	22.3878	15.7846	12.4035	13.1271	11.747	8.9352	7.0742	5.1288	3.0614	0.7566	0	0	0	0	0	0	0	0	0	0	0	0	0	0	0	0	0	0	0	0	0	0	0	0	0	0	0	0	0	0	0	0	0	0	0	0	0	0	0	0
324	39.4484	37.7797	32.5048	24.7652	15.125	13.707	12.7786	11.4761	9.4828	7.6274	5.7525	3.7609	1.4871	0	0	0	0	0	0	0	0	0	0	0	0	0	0	0	0	0	0	0	0	0	0	0	0	0	0	0	0	0	0	0	0	0	0	0	0	0	0	0	0
326	44.9037	33.1806	30.6582	23.0553	15.071	12.8081	13.1365	12.8688	10.0013	8.1532	6.3553	4.3516	2.1907	0	0	0	0	0	0	0	0	0	0	0	0	0	0	0	0	0	0	0	0	0	0	0	0	0	0	0	0	0	0	0	0	0	0	0	0	0	0	0	0
328	42.6719	33.7379	31.8594	21.875	17.3644	14.5915	14.2274	12.7652	11.6338	8.6507	6.9291	4.916	2.8662	0.8346	0	0	0	0	0	0	0	0	0	0	0	0	0	0	0	0	0	0	0	0	0	0	0	0	0	0	0	0	0	0	0	0	0	0	0	0	0	0	0
330	39.6014	39.6046	28.2566	21.8989	18.3145	14.0856	15.2759	14.2624	12.4451	9.1232	7.4022	5.4814	3.5144	1.6373	0	0	0	0	0	0	0	0	0	0	0	0	0	0	0	0	0	0	0	0	0	0	0	0	0	0	0	0	0	0	0	0	0	0	0	0	0	0	0
332	40.5704	39.2732	32.6309	24.8453	18.3034	15.7335	14.9025	14.9099	13.5595	9.4682	7.7675	5.9817	4.4157	2.3824	0	0	0	0	0	0	0	0	0	0	0	0	0	0	0	0	0	0	0	0	0	0	0	0	0	0	0	0	0	0	0	0	0	0	0	0	0	0	0
334	41.9026	37.7592	31.2488	25.9682	19.2572	15.8354	12.6128	14.7133	14.1773	11.3205	8.0964	6.4407	5.2548	3.0784	0.8924	0	0	0	0	0	0	0	0	0	0	0	0	0	0	0	0	0	0	0	0	0	0	0	0	0	0	0	0	0	0	0	0	0	0	0	0	0	0
336	43.323	37.732	32.4385	24.6949	18.7053	16.565	15.4926	13.5139	13.418	11.5766	8.3972	7.163	5.9361	3.7291	1.7296	0	0	0	0	0	0	0	0	0	0	0	0	0	0	0	0	0	0	0	0	0	0	0	0	0	0	0	0	0	0	0	0	0	0	0	0	0	0
338	45.5709	38.9999	33.8411	24.7218	18.6904	15.6225	15.4467	13.9265	13.8233	12.5209	8.6718	7.8347	6.4717	4.673	2.5144	0	0	0	0	0	0	0	0	0	0	0	0	0	0	0	0	0	0	0	0	0	0	0	0	0	0	0	0	0	0	0	0	0	0	0	0	0	0
340	40.6449	41.4154	33.4015	27.7961	19.7608	17.3813	14.2374	13.8865	13.7106	12.4359	10.5371	8.4493	6.9613	5.5493	3.2457	1.0067	0	0	0	0	0	0	0	0	0	0	0	0	0	0	0	0	0	0	0	0	0	0	0	0	0	0	0	0	0	0	0	0	0	0	0	0	0
342	42.8647	38.1103	34.555	27.4304	19.6934	16.4468	16.498	14.9406	13.9017	12.5762	11.7177	9.0559	7.7604	6.2872	3.9449	1.9578	0	0	0	0	0	0	0	0	0	0	0	0	0	0	0	0	0	0	0	0	0	0	0	0	0	0	0	0	0	0	0	0	0	0	0	0	0
344	44.467	38.9198	33.4556	27.2958	22.7525	17.6055	16.3924	15.4929	14.8339	13.5357	11.4225	9.6146	8.503	6.8718	5.0168	2.8533	0.3128	0	0	0	0	0	0	0	0	0	0	0	0	0	0	0	0	0	0	0	0	0	0	0	0	0	0	0	0	0	0	0	0	0	0	0	0
346	40.122	38.9538	34.5199	26.9694	21.282	17.4288	15.5569	15.4917	15.3616	14.2071	12.6562	9.9055	9.2132	7.4309	6.0352	3.7028	1.3761	0	0	0	0	0	0	0	0	0	0	0	0	0	0	0	0	0	0	0	0	0	0	0	0	0	0	0	0	0	0	0	0	0	0	0	0
348	47.1942	40.9674	35.4732	27.4353	20.8867	18.0372	16.8055	16.135	14.7671	14.9551	13.2205	11.8631	9.8984	8.3655	6.8967	4.5136	2.387	0.5517	0	0	0	0	0	0	0	0	0	0	0	0	0	0	0	0	0	0	0	0	0	0	0	0	0	0	0	0	0	0	0	0	0	0	0
350	55.9674	44.4236	35.48	28.0522	22.3643	19.287	17.98	16.7413	16.0702	15.0307	14.1092	13.0699	10.5367	9.243	7.5969	5.4166	3.3447	1.6077	0	0	0	0	0	0	0	0	0	0	0	0	0	0	0	0	0	0	0	0	0	0	0	0	0	0	0	0	0	0	0	0	0	0	0
352	48.8914	43.0097	38.1541	28.9583	23.2758	18.5308	17.9083	17.4081	16.7297	15.3232	15.2244	13.4812	12.096	10.0654	8.2528	6.2675	4.2499	2.2318	0.7761	0	0	0	0	0	0	0	0	0	0	0	0	0	0	0	0	0	0	0	0	0	0	0	0	0	0	0	0	0	0	0	0	0	0
354	53.0575	48.5709	38.6121	29.336	24.1825	19.5678	17.995	17.9048	17.269	16.9718	15.159	13.7975	13.2152	10.8309	8.9937	7.0654	5.3508	3.5514	1.782	0	0	0	0	0	0	0	0	0	0	0	0	0	0	0	0	0	0	0	0	0	0	0	0	0	0	0	0	0	0	0	0	0	0
356	47.5496	49.1146	37.8383	30.7127	23.3315	21.1505	19.8184	18.3223	18.2062	17.1673	16.1463	15.6163	14.231	11.5792	9.9567	8.3224	6.6268	4.812	3.0098	0.6648	0	0	0	0	0	0	0	0	0	0	0	0	0	0	0	0	0	0	0	0	0	0	0	0	0	0	0	0	0	0	0	0	0
358	53.2812	42.5972	38.9014	32.153	24.6598	21.8026	20.4542	19.542	18.7816	17.4887	16.3287	16.0097	14.9597	12.9561	11.1363	9.5425	7.8163	6.0276	4.195	1.8585	0.557	0	0	0	0	0	0	0	0	0	0	0	0	0	0	0	0	0	0	0	0	0	0	0	0	0	0	0	0	0	0	0	0
360	49.8571	49.0789	40.5988	34.4648	26.4331	22.5992	19.9344	19.3908	19.9544	18.9463	17.8062	17.0991	16.4713	14.3849	12.2554	10.6581	8.9481	7.186	5.4287	3.2644	0.9114	0	0	0	0	0	0	0	0	0	0	0	0	0	0	0	0	0	0	0	0	0	0	0	0	0	0	0	0	0	0	0	0
362	51.6668	51.8197	42.149	35.706	27.0372	24.2749	22.6326	20.3468	20.1826	19.5993	18.3763	17.6987	17.6349	15.9418	13.4082	11.776	10.0792	8.4514	6.6503	4.2735	2.2501	0.4686	0	0	0	0	0	0	0	0	0	0	0	0	0	0	0	0	0	0	0	0	0	0	0	0	0	0	0	0	0	0	0
364	61.7966	51.3338	44.3957	37.8975	29.4378	24.9521	22.7972	22.1827	21.565	20.4038	19.9095	19.1254	18.297	16.6622	15.4011	12.8541	11.171	9.8823	7.8315	5.5196	3.1779	1.5157	0	0	0	0	0	0	0	0	0	0	0	0	0	0	0	0	0	0	0	0	0	0	0	0	0	0	0	0	0	0	0
366	56.1605	56.0961	46.6485	35.3617	30.3695	25.196	23.8913	22.9297	22.4705	20.9015	21.402	20.7295	19.2898	18.4286	16.9303	13.9038	12.4383	11.2733	8.9796	6.7313	4.2545	2.0219	0.4769	0	0	0	0	0	0	0	0	0	0	0	0	0	0	0	0	0	0	0	0	0	0	0	0	0	0	0	0	0	0
368	66.1689	52.6424	49.7535	39.5442	31.3259	26.7137	26.3712	23.7845	23.2449	22.5803	21.7316	21.1499	21.124	20.1016	18.3501	14.9282	13.7744	12.3644	10.1101	7.9104	5.6352	2.7557	0.7902	0	0	0	0	0	0	0	0	0	0	0	0	0	0	0	0	0	0	0	0	0	0	0	0	0	0	0	0	0	0
370	58.9447	56.2764	48.1446	41.341	32.912	28.8908	26.1866	25.0794	24.5536	23.9153	23.3629	22.412	22.228	21.2577	19.6908	17.3013	15.0665	13.4189	11.2284	9.0522	6.8688	3.9059	1.6646	0	0	0	0	0	0	0	0	0	0	0	0	0	0	0	0	0	0	0	0	0	0	0	0	0	0	0	0	0	0
372	70.0605	60.0438	51.3919	42.7854	35.9606	29.8581	26.7445	25.8183	26.3446	24.9982	24.2383	24.0051	23.7056	22.4817	20.9279	19.4015	16.3982	14.5352	12.3723	10.4606	8.0867	4.8243	2.679	0.9605	0	0	0	0	0	0	0	0	0	0	0	0	0	0	0	0	0	0	0	0	0	0	0	0	0	0	0	0	0
374	73.0841	62.0562	53.5958	45.112	36.0749	32.5185	29.1019	27.6115	27.557	26.5365	26.1243	25.245	25.3081	24.1122	23.1168	20.6993	17.701	15.8911	13.9932	12.0887	9.2793	6.3225	3.4726	1.6095	0	0	0	0	0	0	0	0	0	0	0	0	0	0	0	0	0	0	0	0	0	0	0	0	0	0	0	0	0
376	67.5453	62.8108	56.7378	44.2945	38.8293	32.2778	30.1292	28.3576	26.9253	27.0538	27.4354	26.9765	26.8627	26.5061	24.8386	22.9136	19.4362	17.4519	15.5664	13.302	10.4376	7.4959	4.3272	2.6451	0.3907	0	0	0	0	0	0	0	0	0	0	0	0	0	0	0	0	0	0	0	0	0	0	0	0	0	0	0	0
378	73.1462	66.7952	57.7447	49.6266	39.5825	35.2295	32.0338	30.1454	30.3266	29.0788	29.0932	29.0819	29.3232	28.0204	25.3946	24.0782	21.1749	18.9583	17.0871	14.4732	11.5583	8.7499	5.9356	3.2181	1.4897	0	0	0	0	0	0	0	0	0	0	0	0	0	0	0	0	0	0	0	0	0	0	0	0	0	0	0	0
380	76.8152	66.6162	61.4616	49.5395	42.2104	35.2552	33.7281	31.4767	31.4814	30.2632	30.0539	31.6011	30.2402	29.4723	27.9927	26.2935	23.4231	20.424	18.2041	15.5783	12.6492	9.9719	7.3303	4.1442	2.0058	0.1847	0	0	0	0	0	0	0	0	0	0	0	0	0	0	0	0	0	0	0	0	0	0	0	0	0	0	0
382	78.8082	70.3294	64.1862	50.8899	43.2444	37.4485	34.8589	33.2206	32.6013	31.112	32.509	32.1853	31.6506	30.7879	29.2083	28.2599	25.0522	21.9489	19.3773	16.6946	14.0486	11.2128	8.1557	5.0878	2.7034	1.1356	0	0	0	0	0	0	0	0	0	0	0	0	0	0	0	0	0	0	0	0	0	0	0	0	0	0	0
384	83.6478	72.4546	60.7708	54.5223	44.4745	39.808	37.4464	34.6648	33.4252	32.7682	33.6476	33.6059	33.5278	31.5259	30.4482	28.5691	26.9376	23.7622	20.5304	17.7919	15.4253	12.4337	9.2636	6.552	3.9097	1.9126	0	0	0	0	0	0	0	0	0	0	0	0	0	0	0	0	0	0	0	0	0	0	0	0	0	0	0
386	83.1523	76.7602	63.8231	56.0909	47.3982	40.3742	38.2186	35.7904	34.6602	33.0803	34.0568	35.0375	36.045	34.9168	32.5444	30.7834	28.3418	25.521	21.7444	19.2169	16.765	13.6853	10.3921	7.5965	4.8758	2.725	0.8673	0	0	0	0	0	0	0	0	0	0	0	0	0	0	0	0	0	0	0	0	0	0	0	0	0	0
388	85.8177	79.2435	67.7319	56.2505	49.4645	43.6592	38.4384	35.9338	35.5081	35.1309	36.1996	36.7717	37.0327	35.7968	34.4514	32.4356	29.9317	27.303	23.0339	20.7073	18.0842	14.8802	11.5543	9.1374	5.9026	3.6854	1.4955	0	0	0	0	0	0	0	0	0	0	0	0	0	0	0	0	0	0	0	0	0	0	0	0	0	0
390	85.195	80.1255	67.0525	60.8358	49.4562	44.8668	40.7516	38.303	36.9915	36.0173	37.0244	38.1611	38.5754	38.5288	36.6142	34.2221	31.4275	29.0539	24.7544	22.197	19.4028	16.0744	12.7158	9.5781	7.461	4.3523	2.5733	0.4392	0	0	0	0	0	0	0	0	0	0	0	0	0	0	0	0	0	0	0	0	0	0	0	0	0
392	89.689	79.6729	70.3645	62.3903	53.6963	47.2777	43.3063	39.8701	38.4866	37.9379	38.7907	39.576	40.9476	39.2569	38.6184	36.3744	33.2976	30.3899	26.9133	23.5443	20.4932	17.1647	13.8944	10.9249	8.0863	5.3179	2.9408	1.3184	0	0	0	0	0	0	0	0	0	0	0	0	0	0	0	0	0	0	0	0	0	0	0	0	0
394	93.9426	80.8023	72.4246	65.0912	54.7202	47.8389	43.0317	40.9426	40.5093	40.7125	39.4215	40.6533	41.5724	40.4946	39.8434	38.3252	34.9694	32.1844	28.8347	24.8729	21.6731	18.4457	15.2054	12.2541	9.6166	6.5872	3.857	2.1642	0.0751	0	0	0	0	0	0	0	0	0	0	0	0	0	0	0	0	0	0	0	0	0	0	0	0
396	95.0917	84.0407	78.0658	64.5277	57.0216	51.9922	45.3581	41.9027	40.3643	40.9557	40.4244	41.7732	43.2106	42.8561	41.5444	38.9856	36.9639	33.896	30.7967	27.3328	22.9762	19.7397	16.6209	13.5867	10.7445	7.983	4.8654	2.9941	0.7932	0	0	0	0	0	0	0	0	0	0	0	0	0	0	0	0	0	0	0	0	0	0	0	0
398	99.7229	92.7683	81.0078	65.9853	58.6483	51.8826	47.6328	43.2186	42.0259	42.147	42.2173	43.4444	44.2054	44.3787	43.5607	41.5309	38.2576	36.0308	32.2299	28.5915	24.3037	21.1523	18.0502	14.9291	12.0156	9.5354	6.3724	3.4724	2.0642	0	0	0	0	0	0	0	0	0	0	0	0	0	0	0	0	0	0	0	0	0	0	0	0
400	104.6348	92.8611	77.1126	69.7208	61.4823	55.3703	48.6101	45.4351	43.337	42.8932	44.1088	44.6816	46.8002	45.6632	46.2258	43.0867	40.1787	37.8819	34.4534	30.6035	25.6219	22.6047	19.4067	16.2709	13.2781	10.1276	7.3502	4.4029	2.7769	0.5292	0	0	0	0	0	0	0	0	0	0	0	0	0	0	0	0	0	0	0	0	0	0	0
402	111.7339	92.0906	84.0336	73.7526	63.7823	54.2211	50.4231	45.6135	44.9345	44.3097	45.3116	46.3971	47.8388	48.9243	46.7625	45.5874	42.5271	39.9391	36.4668	32.8853	27.7647	24.0059	20.7183	17.5902	14.5072	11.5048	8.8192	5.497	3.4473	1.6585	0	0	0	0	0	0	0	0	0	0	0	0	0	0	0	0	0	0	0	0	0	0	0
404	111.0306	98.4689	85.6224	75.2147	63.9845	59.182	52.6662	49.701	45.5829	45.1635	46.9424	48.9435	48.9875	49.4434	48.042	46.862	44.2681	41.6563	38.1769	34.6773	30.0966	25.3919	22.0328	18.8953	15.7232	12.6096	9.6622	6.4287	4.0954	2.4266	0.1003	0	0	0	0	0	0	0	0	0	0	0	0	0	0	0	0	0	0	0	0	0	0
406	108.593	97.8818	88.1022	78.3406	66.8867	59.8678	52.5607	48.3407	47.569	46.3173	48.488	50.1827	50.691	51.3342	51.4136	48.6075	46.784	43.3157	39.4396	36.5666	32.2654	26.813	23.3851	20.1361	16.9176	13.7283	10.8107	7.7188	4.6071	3.3256	0.9738	0	0	0	0	0	0	0	0	0	0	0	0	0	0	0	0	0	0	0	0	0	0
408	118.1294	101.2393	89.3077	79.6172	70.1897	63.0698	54.8152	50.6441	49.7449	47.7369	49.4717	50.3821	52.8923	52.125	52.4333	50.1075	48.2114	45.5654	41.5385	38.6141	34.1455	29.1558	24.7747	21.4086	18.0574	14.8673	11.7671	8.7196	5.9025	3.8742	2.1547	0	0	0	0	0	0	0	0	0	0	0	0	0	0	0	0	0	0	0	0	0	0
410	117.8021	106.7159	94.6949	82.6007	73.9536	61.8345	56.2647	52.6269	51.0186	50.6944	51.1491	52.0248	54.1656	55.8398	54.9721	51.7161	49.6805	47.6605	43.724	39.8929	36.169	31.6701	26.1607	22.596	19.194	16.1554	12.9398	9.7321	7.1639	4.3888	2.6829	0.6418	0	0	0	0	0	0	0	0	0	0	0	0	0	0	0	0	0	0	0	0	0
412	118.0138	106.2391	98.2199	82.8505	76.457	68.061	60.2239	53.7459	52.5832	51.3466	51.7493	52.9541	56.2228	56.6636	55.0785	54.3123	51.5311	48.3227	45.4189	42.0082	37.8252	33.3431	27.5451	23.8961	20.6345	17.5934	14.1103	11.2636	7.8826	5.2831	3.5746	1.5968	0	0	0	0	0	0	0	0	0	0	0	0	0	0	0	0	0	0	0	0	0
414	126.1053	111.1003	96.822	86.9887	77.7373	67.1586	60.7147	54.9212	52.6025	52.6967	53.2829	54.339	55.8975	57.0192	57.2952	55.7102	53.4962	50.8525	47.6139	44.0352	39.7624	35.1115	30.0147	25.3477	22.0715	18.7553	15.2778	11.8917	9.0722	6.3341	4.1361	2.5235	0.1683	0	0	0	0	0	0	0	0	0	0	0	0	0	0	0	0	0	0	0	0
416	120.0883	104.8416	97.3465	87.8191	78.6707	69.8875	62.2503	57.0792	54.7595	53.3632	53.3363	56.3219	57.4758	59.362	58.0264	57.9093	54.4734	51.8948	49.3611	45.1204	41.586	37.6603	32.0013	26.8567	23.5585	19.9595	16.4797	13.0232	9.88	7.2811	5.0267	3.212	1.4395	0	0	0	0	0	0	0	0	0	0	0	0	0	0	0	0	0	0	0	0
418	125.5553	119.1077	102.1548	90.8006	79.8716	72.0907	64.5305	57.1764	56.1087	54.5063	54.7696	57.1906	58.0057	59.7536	59.6895	59.1682	57.8966	54.505	51.4314	47.6873	43.7656	38.4863	33.8461	28.4334	24.8303	21.2142	17.7773	14.3059	11.0767	8.2891	5.801	4.064	2.2504	0	0	0	0	0	0	0	0	0	0	0	0	0	0	0	0	0	0	0	0
420	122.7499	114.2707	104.9776	94.3675	84.6342	75.5918	66.1574	60.8935	56.5463	55.3918	55.9957	57.7908	59.8419	61.009	61.9913	59.7693	58.575	55.7703	53.2984	49.6349	45.0274	40.3525	35.5415	30.0201	26.1637	22.5834	19.0897	15.5968	12.6439	9.2827	6.6349	4.5579	3.0638	0.9837	0	0	0	0	0	0	0	0	0	0	0	0	0	0	0	0	0	0	0
422	130.2635	117.3067	106.2939	95.5073	84.8268	76.2327	67.329	62.076	58.77	57.1908	57.5902	58.6828	61.6331	62.2449	62.4079	61.3499	60.3093	57.7654	54.4494	50.6203	46.8971	42.6793	37.538	32.2444	27.5658	23.9672	20.3212	16.8998	13.5136	10.3225	7.7048	5.191	3.7742	2.044	0	0.0121	0.0141	0	0	0	0	0	0	0	0	0	0	0	0	0	0	0	0
424	126.342	124.0073	108.8094	98.8811	86.433	76.8739	67.9387	62.5617	59.5342	59.1681	57.7383	59.3922	61.7743	63.3721	62.3435	63.1965	61.6724	60.1149	57.0241	52.4741	48.1254	44.0052	39.8276	33.8573	28.9773	25.2658	21.5609	18.2117	14.5824	11.3948	8.3903	6.1908	4.2345	2.4724	0.5047	0.0363	0.0283	0	0	0	0	0	0	0	0	0	0	0	0	0	0	0	0
426	138.6077	123.6038	108.1167	100.3628	90.1891	79.1337	70.0163	64.4074	61.0765	57.9806	58.2857	60.4665	63.4379	64.3297	64.6746	64.3218	63.1543	61.1243	58.3444	55.2536	49.9176	45.5435	41.2008	36.0236	30.4475	26.5686	22.9262	19.4272	15.6837	12.5036	9.4468	6.9107	5.0695	3.1759	1.3937	0.0608	0.0427	0	0	0	0	0	0	0	0	0	0	0	0	0	0	0	0
428	131.4692	121.4107	109.6246	101.2264	90.6984	80.1532	72.6071	64.8778	60.7517	59.8917	59.6435	60.8982	63.0898	64.9297	65.2665	65.8321	64.591	62.5236	59.526	56.6714	52.6767	48.0395	42.4112	37.754	32.5879	27.9283	24.3435	20.4121	16.8225	13.4786	10.3358	7.72	5.629	4.1742	2.0953	0.0856	0.0287	0	0	0	0	0	0	0	0	0	0	0	0	0	0	0	0
430	139.663	128.4803	114.1689	100.4721	93.6881	82.0739	73.0871	65.6764	63.0113	60.7596	59.2447	61.6389	63.7042	65.6982	66.0896	66.8821	66.5186	63.5593	61.5199	58.8202	54.0602	48.5733	44.1013	39.6782	34.4907	29.3039	25.5012	21.4083	17.975	14.534	11.1126	8.7518	6.4803	4.3155	2.9849	0.9285	0.0144	0	0	0	0	0	0	0	0	0	0	0	0	0	0	0	0
432	148.4652	131.0153	117.5541	102.9924	94.4216	83.4093	74.7527	69.662	63.683	61.9581	61.4472	62.5531	65.2877	67.4336	68.0014	67.7739	67.59	64.8421	62.6726	59.1008	55.4355	50.8846	45.24	40.4609	35.9424	30.6618	26.5039	22.5708	19.0927	15.585	12.3954	9.5695	7.2157	5.2358	3.7866	1.9803	0	0.0674	0.0788	0	0	0	0	0	0	0	0	0	0	0	0	0	0
434	137.1768	120.9523	117.2871	103.7126	97.1993	86.5747	76.859	69.4806	63.7638	62.5106	61.7856	63.0433	65.1535	66.5532	68.3015	68.8327	67.5753	66.8008	64.0656	60.6555	56.7233	52.1348	46.3451	41.676	37.5856	32.952	27.5161	23.7448	20.1661	16.6467	13.2981	10.1366	8.1527	5.72	4.3788	2.8072	0.575	0.2033	0.1584	0	0	0	0	0	0	0	0	0	0	0	0	0	0
436	140.3054	126.8274	117.2232	106.6512	95.5801	88.3828	79.218	69.2366	66.6586	64.0603	62.6052	63.7255	65.6705	67.891	68.9054	69.267	68.9054	67.8589	65.5689	61.649	57.7428	52.8452	47.9501	43.3284	39.3724	34.193	28.5745	24.9065	21.2774	17.7417	14.1347	11.0097	9.1277	6.5802	4.8519	3.3602	1.6023	0.3411	0.2391	0	0	0	0	0	0	0	0	0	0	0	0	0	0
438	138.6364	129.7834	115.7259	106.9508	98.2948	88.7603	78.7367	70.9487	67.4183	63.6038	62.9143	64.9141	65.8811	68.3875	70.559	70.6136	69.9081	68.4378	67.31	63.4135	59.2559	55.0067	49.6256	43.9283	39.7164	35.3054	29.6825	26.0346	22.3258	18.716	14.9858	12.3151	9.9018	7.2663	5.3408	3.992	2.197	0.4812	0.1606	0	0	0	0	0	0	0	0	0	0	0	0	0	0
440	139.636	131.5587	121.1475	109.7336	97.9418	88.9626	80.981	72.5049	67.2337	64.3322	62.6247	65.2082	66.7058	68.4288	69.7117	70.5242	70.1699	69.6734	68.3596	64.5652	60.9231	56.021	50.5675	45.3512	41.1937	37.1879	31.3865	27.0195	23.2827	19.5111	15.8485	12.91	10.6387	8.2812	5.811	4.5258	2.6953	0.9841	0.0809	0	0	0	0	0	0	0	0	0	0	0	0	0	0
442	137.2821	129.8244	120.7379	111.9135	98.7311	90.8365	80.4967	73.0086	69.4921	65.2022	64.2471	64.7343	67.3513	68.0906	70.13	71.165	71.9355	70.6206	68.4754	65.4336	61.2854	57.5892	52.1332	46.2781	42.7852	37.8994	33.0623	27.9952	24.2332	20.0205	16.7099	13.6365	11.0815	9.0075	6.9181	4.7945	3.4958	2.0036	0	0.0579	0.067	0	0	0	0	0	0	0	0	0	0	0	0
444	142.5134	133.2485	118.8687	108.6868	103.2915	92.2349	81.2228	73.4458	69.0001	66.3013	65.7006	65.1111	68.1816	69.0549	70.9618	71.3654	71.9231	70.8942	70.1941	67.3405	63.1899	58.497	52.3676	47.7773	43.4224	39.4595	34.1645	28.9819	24.9143	20.5351	17.5819	14.3717	11.9979	9.5573	7.6374	5.5526	4.0714	2.5329	0.7534	0.1749	0.1349	0	0	0	0	0	0	0	0	0	0	0	0
